No,RAW_TP9,RAW_AF7,RAW_AF8,RAW_TP10,REF,Accelerometer_X,Accelerometer_Y,Accelerometer_Z,Gyro_X,Gyro_Y,Gyro_Z,Alpha_TP9,Alpha_AF7,Alpha_AF8,Alpha_TP10,Beta_TP9,Beta_AF7,Beta_AF8,Beta_TP10,Delta_TP9,Delta_AF7,Delta_AF8,Delta_TP10,Theta_TP9,Theta_AF7,Theta_AF8,Theta_TP10,Gamma_TP9,Gamma_AF7,Gamma_AF8,Gamma_TP10
1,847.7500680776743,849.9971782977765,848.5404357910156,840.6522967998798,838.4206801194412,0.11444091796875,0.2734578450520833,0.9640706380208334,0.94207763671875,7.344716389973958,7.000783284505208,1.0532042980194092,0.07251733541488647,-0.0691666454076767,0.782748281955719,0.7088304758071899,-0.11411884427070618,-0.26185542345046997,0.49846410751342773,1.4705805778503418,1.473071575164795,0.5201058983802795,1.3009661436080933,0.9421531558036804,-0.04306276515126228,0.014523845165967941,0.7955910563468933,0.23422771692276,-0.36923399567604065,-0.45070698857307434,-0.004052767530083656
2,847.1611680250901,845.6889272836538,849.0053523137019,845.5649484487681,841.1947021484375,0.09529622395833333,0.2745463053385417,0.9659016927083334,0.5719757080078125,11.437021891276041,4.8512013753255205,1.0532042980194092,0.07251733541488647,-0.258751779794693,0.7913995385169983,0.7122383117675781,-0.07441888749599457,-0.2973695397377014,0.4934522211551666,1.4302396774291992,1.4423913955688477,0.2641627788543701,1.268422245979309,0.9119892120361328,-0.058399125933647156,-0.17599190771579742,0.758938729763031,0.21721714735031128,-0.33769163489341736,-0.4838869571685791,-0.0049478537403047085
3,850.7255554199219,849.8732018103966,847.8430551382212,844.1236971341647,848.974355844351,0.08650716145833333,0.2686971028645833,0.9678955078125,-2.9957071940104165,6.734110514322917,6.412607828776042,1.0532042980194092,0.07289370149374008,-0.3417354226112366,0.7958130836486816,0.7095888257026672,-0.046428579837083817,-0.32870957255363464,0.48149585723876953,1.3939094543457031,1.4140623807907104,0.15286439657211304,1.2372170686721802,0.8851198554039001,-0.0622386671602726,-0.2183935046195984,0.7262881398200989,0.19823312759399414,-0.31721729040145874,-0.529712975025177,0.002938783261924982
4,835.7373498987268,847.6610989040798,847.556640625,833.6480803313078,835.3642668547453,0.08708699544270833,0.2521769205729167,0.966949462890625,-3.537775675455729,3.699773152669271,9.668757120768229,1.0554783344268799,0.07615436613559723,-0.3760957419872284,0.8052681088447571,0.7022765278816223,-0.03714961186051369,-0.3519963324069977,0.4709225594997406,1.3616317510604858,1.3874711990356445,0.1248970627784729,1.2084563970565796,0.8615026473999023,-0.04262107238173485,-0.22430919110774994,0.6979852914810181,0.1781773716211319,-0.30657780170440674,-0.5804722309112549,0.015122411772608757
5,842.3724975585938,849.299799992488,849.5787564791166,830.8114952674279,838.8236130934495,0.09600830078125,0.26112060546875,0.963916015625,-1.532745361328125,4.6842193603515625,5.4393768310546875,1.06382417678833,0.0159145575016737,-0.3713783919811249,0.8083539605140686,0.691084086894989,-0.042073383927345276,-0.36847639083862305,0.4629426598548889,1.3324724435806274,1.3432765007019043,0.10082387179136276,1.181786298751831,0.8396158814430237,0.012456103228032589,-0.23217391967773438,0.6728105545043945,0.15949563682079315,-0.31021738052368164,-0.6243335604667664,0.02217695489525795
6,843.6587806114784,850.5550912710337,849.0983370267428,837.8472806490385,840.3733473557693,0.08640543619791667,0.26800537109375,0.970458984375,0.6454976399739584,6.719156901041667,6.322886149088542,1.0735560655593872,-0.016386432573199272,-0.3654171824455261,0.8083539605140686,0.6771606206893921,-0.04921113699674606,-0.3802751302719116,0.4545344114303589,1.3064261674880981,1.281238317489624,0.061808619648218155,1.1580644845962524,0.819128155708313,0.07665900141000748,-0.2518380284309387,0.6482474207878113,0.1441594660282135,-0.31953319907188416,-0.6559600830078125,0.02016400173306465
7,835.9101139948918,848.1530033991887,851.996342585637,829.8041710486779,837.180898813101,0.07320149739583333,0.2723795572916667,0.96868896484375,-0.107666015625,5.956024169921875,4.969085693359375,1.0389926433563232,-0.007974476553499699,-0.3657035827636719,0.790365993976593,0.6549348831176758,-0.0562313012778759,-0.3860360383987427,0.4500303566455841,1.2439733743667603,1.2067917585372925,-0.0011681985342875123,1.1030778884887695,0.7493680119514465,0.13208366930484772,-0.28828832507133484,0.5695009827613831,0.09570483863353729,-0.33359912037849426,-0.6810041666030884,-0.00118572439532727
8,847.4556157038762,854.4914128230168,850.632577749399,835.3522198016827,848.0135263296274,0.07698567708333333,0.2697041829427083,0.9659423828125,-2.1433512369791665,6.4512379964192705,3.940277099609375,0.9941070079803467,-0.003691102610900998,-0.3425147235393524,0.7561036348342896,0.6435455083847046,-0.059237558394670486,-0.3837607502937317,0.4494999349117279,1.1253939867019653,1.1298367977142334,-0.09768715500831604,1.0042744874954224,0.6338475942611694,0.17090293765068054,-0.3386044502258301,0.4370765686035156,0.05666838213801384,-0.34645119309425354,-0.7056984901428223,-0.007565458305180073
9,855.4212397822628,854.1975323712385,847.4969505027489,847.1686333550347,842.1245411060474,0.07694498697916667,0.2673441569010417,0.9712626139322916,-1.9987996419270833,7.020721435546875,5.5066680908203125,0.9740036725997925,-0.00401940755546093,-0.28524020314216614,0.683663010597229,0.6511090397834778,-0.05494639649987221,-0.37099242210388184,0.4583517014980316,0.9452898502349854,1.0596240758895874,-0.2217228263616562,0.869704008102417,0.49043264985084534,0.1876055747270584,-0.3858024477958679,0.26887643337249756,0.03576667979359627,-0.34950149059295654,-0.7273901104927063,0.003305007703602314
10,850.1056588979868,851.1594754732572,848.7728952261118,842.0005634014423,839.8929279033954,0.06288655598958333,0.26422119140625,0.9689534505208334,-2.9209391276041665,7.683664957682292,5.722249348958333,0.9546126127243042,-0.01518009789288044,-0.22614608705043793,0.6268611550331116,0.6795543432235718,-0.04329223930835724,-0.3526974320411682,0.4798261523246765,0.725695013999939,0.9977065324783325,-0.34674543142318726,0.7329525351524353,0.3684610426425934,0.1855258345603943,-0.4109370708465576,0.12131568789482117,0.04269560053944588,-0.34006771445274353,-0.743121325969696,0.023459402844309807
11,850.1495691935221,852.9532928466797,848.0677617390951,845.2472559611002,847.5473149617513,0.058359781901041664,0.2618509928385417,0.96954345703125,-2.594451904296875,8.367792765299479,6.532236735026042,0.947433352470398,-0.023090485483407974,-0.17546239495277405,0.639644205570221,0.7165032029151917,-0.0311177596449852,-0.34127864241600037,0.5100844502449036,0.564961850643158,0.9298385381698608,-0.4304480254650116,0.6626361012458801,0.3094240128993988,0.17262756824493408,-0.40982291102409363,0.04519977420568466,0.07551366835832596,-0.3253643810749054,-0.75525963306427,0.049916237592697144
12,831.7723271296575,852.8331956129807,852.2287926307091,841.4581557053787,838.0487436147837,0.04925537109375,0.257568359375,0.9708048502604166,-2.2903951009114585,6.255594889322917,7.902984619140625,0.9444351196289062,-0.024483561515808105,-0.1356341391801834,0.639644205570221,0.7453960180282593,-0.02691761590540409,-0.3463117480278015,0.5391561388969421,0.5424477458000183,0.8322368860244751,-0.46560439467430115,0.6677528023719788,0.29761019349098206,0.15411826968193054,-0.39885419607162476,0.01852242834866047,0.12253443151712418,-0.31695935130119324,-0.7669538855552673,0.09608184546232224
13,845.555556788589,851.6361379912405,850.5372443921639,842.234434185606,837.2161106918797,0.053253173828125,0.263641357421875,0.9726765950520834,-1.8658786349826388,4.270087348090278,4.589097764756945,0.8519035577774048,-0.05694694072008133,-0.12361019104719162,0.639644205570221,0.7513203024864197,-0.07086201012134552,-0.402243435382843,0.5540700554847717,0.7257473468780518,0.25267088413238525,-0.47802606225013733,0.7125865817070007,0.35594865679740906,0.10662941634654999,-0.4155997633934021,0.06080862134695053,0.27254796028137207,-0.5059330463409424,-0.8101381063461304,0.49332138895988464
14,834.778810941256,833.6939978966346,862.8754577636719,839.0715660682091,839.846437894381,0.053934733072916664,0.257904052734375,0.9714253743489584,-1.7682647705078125,4.697926839192708,4.6069590250651045,0.8246761560440063,-0.044168826192617416,-0.12101041525602341,0.5598952770233154,0.7289758324623108,-0.17538253962993622,-0.4036121368408203,0.5422238707542419,0.8235161900520325,-0.02717331424355507,-0.3903791606426239,0.6991657614707947,0.43355414271354675,0.07555949687957764,-0.4293806850910187,0.09365785866975784,0.28104865550994873,-0.5698133111000061,-0.8178940415382385,0.5045414566993713
15,851.4351152692523,846.1394544328962,848.7441101074219,848.6433824811663,842.5706503731864,0.05200958251953125,0.25432586669921875,0.9723587036132812,-1.79443359375,4.47113037109375,5.1055908203125,0.8609127402305603,0.006586476694792509,0.028662562370300293,0.4806702435016632,0.7330322265625,-0.17651064693927765,-0.3819289803504944,0.5458317399024963,0.8418943881988525,0.04853159189224243,-0.187276691198349,0.6931468844413757,0.4646676182746887,0.05221329629421234,-0.3334150016307831,0.07535271346569061,0.3070337772369385,-0.6805041432380676,-0.8149141669273376,0.4994873106479645
16,807.4880206768329,847.936039851262,845.1620225172776,802.3119154710037,845.8593984750601,0.04693603515625,0.2515462239583333,0.9692586263020834,-1.5950520833333333,4.149627685546875,5.585174560546875,0.9394438862800598,0.0107493931427598,0.16967913508415222,0.5636499524116516,0.7466515302658081,-0.14668236672878265,-0.3575253188610077,0.5492508411407471,0.8615337610244751,0.2459414303302765,0.013184688985347748,0.6983422040939331,0.5119033455848694,0.0788642019033432,-0.20958684384822845,0.11423594504594803,0.32717999815940857,-0.6964437961578369,-0.8093509078025818,0.5004472136497498
17,836.322342936198,850.7203938802083,845.2673950195312,832.8034138997396,843.5750935872396,0.052998860677083336,0.2572021484375,0.9752197265625,-1.1489359537760417,4.675496419270833,6.300455729166667,0.9082186818122864,0.053901106119155884,0.2204846888780594,0.8200072050094604,0.7642900347709656,-0.10973446816205978,-0.3267612159252167,0.5620706081390381,0.8770370483398438,0.4333161413669586,0.21254676580429077,0.7422256469726562,0.5209044218063354,0.13238683342933655,-0.07976213842630386,0.2395249903202057,0.3463297188282013,-0.6801601052284241,-0.8000450134277344,0.5050795674324036
18,842.3724999060997,854.7548616849459,852.6007291353666,834.4378685584435,844.8210754394531,0.045125325520833336,0.2523193359375,0.97308349609375,-1.951446533203125,4.0972900390625,5.971476236979167,0.8981977701187134,0.08375824242830276,0.22269706428050995,1.0977022647857666,0.7796940207481384,-0.07106845825910568,-0.2994717061519623,0.5989745855331421,0.8917595148086548,0.5677717924118042,0.3622085452079773,0.8625880479812622,0.5286905169487,0.18607540428638458,0.01829696260392666,0.46439066529273987,0.366057813167572,-0.6480063796043396,-0.7845958471298218,0.5114702582359314
19,843.6277841421274,865.5719956618088,855.4677429199219,840.9157527043269,845.0225407527043,0.045328776041666664,0.26007080078125,0.9722900390625,-0.9694925944010416,4.179534912109375,6.008860270182292,0.8910117745399475,0.6684219837188721,0.22939668595790863,1.3961529731750488,0.6936118602752686,0.38158753514289856,-0.21199586987495422,0.7783404588699341,0.9087188243865967,0.7999535799026489,0.5941262245178223,1.2848032712936401,0.6276359558105469,0.2954213619232178,0.09184735268354416,1.0970048904418945,0.36874228715896606,-0.20057156682014465,-0.6967445611953735,0.5263254642486572
20,840.4552612304688,872.8048095703125,858.78859601702,839.7069614955357,824.0214582170759,0.040364583333333336,0.25531005859375,0.9639485677083334,-1.457977294921875,4.237480163574219,5.407600402832031,1.0205402374267578,0.6858720779418945,0.2348080277442932,1.3961529731750488,0.7123633623123169,0.5146051645278931,-0.16620910167694092,0.7749094367027283,0.9271849989891052,0.8626132011413574,0.61232990026474,1.2931926250457764,0.7256988286972046,0.31857210397720337,0.0802026093006134,1.1198056936264038,0.35084885358810425,-0.054043713957071304,-0.6749131083488464,0.4972275197505951
21,838.7383739764874,894.3970125638522,856.5912956824669,837.3591144268329,835.4219512939453,0.049323187934027776,0.2589179144965278,0.9734090169270834,-1.5119764539930556,3.884616427951389,5.350070529513889,1.0205402374267578,0.6858720779418945,0.2348080277442932,1.3961529731750488,0.7178029716014862,0.6119034886360168,-0.12740489840507507,0.7593352198600769,0.8673094809055328,0.9118672609329224,0.619828850030899,1.290262222290039,0.7089084088802338,0.3391076326370239,0.06283075734972954,1.1213516592979431,0.3075559586286545,0.061355140060186386,-0.6533102691173553,0.394108384847641
22,833.9419532189003,895.8072697566106,856.413076547476,835.2902174729568,846.6807579627404,0.04741075303819445,0.2561442057291667,0.9722900390625,-1.6664971245659723,4.587436252170139,4.756079779730903,1.019317865371704,0.6858720779418945,0.2348080277442932,1.3961529731750488,0.705662727355957,0.6422944068908691,-0.11819634586572647,0.7466208934783936,0.789765477180481,0.9580689072608948,0.6164041757583618,1.2862815856933594,0.6462951302528381,0.34786468744277954,0.0530562587082386,1.1177211999893188,0.27170810103416443,0.10392002761363983,-0.6361749768257141,0.25784653425216675
23,845.4099731445312,875.7382342998798,852.5542391263522,843.0078923152043,834.6393409142128,0.045796712239583336,0.2567545572916667,0.9688924153645834,-1.368255615234375,4.129689534505208,4.867401123046875,1.0153638124465942,0.6858720779418945,0.2348080277442932,1.3961529731750488,0.6981640458106995,0.6487739682197571,-0.11773932725191116,0.741955578327179,0.7371968626976013,1.0295048952102661,0.6133338809013367,1.2823127508163452,0.6007294058799744,0.36013153195381165,0.052798040211200714,1.116884469985962,0.2597258985042572,0.11593464016914368,-0.6269823312759399,0.1868276298046112
24,851.2744216918945,877.0451812744141,852.3153305053711,846.6742986043295,839.7741165161133,0.047515869140625,0.2576395670572917,0.9741719563802084,-1.8405405680338542,3.926569620768229,5.3571319580078125,1.0153638124465942,0.6858720779418945,0.2348080277442932,1.3961529731750488,0.6886942386627197,0.6549341678619385,-0.11745171993970871,0.7377293109893799,0.7211143970489502,1.1235140562057495,0.6113417744636536,1.2791423797607422,0.56072598695755,0.38278260827064514,0.05541498214006424,1.1169588565826416,0.2509157955646515,0.12810978293418884,-0.6246495246887207,0.1506177932024002
25,841.0124560546875,864.9948754882812,852.24615234375,840.3516455078125,841.3831518554688,0.046793619791666664,0.2513631184895833,0.9721272786458334,-2.1209208170572915,3.955230712890625,5.186411539713542,1.0153638124465942,0.6858720779418945,0.2348080277442932,1.3961529731750488,0.6693616509437561,0.6601873636245728,-0.11939425766468048,0.7320724725723267,0.7439557909965515,1.2180269956588745,0.6061092615127563,1.2789236307144165,0.520075261592865,0.4098275601863861,0.054926469922065735,1.1168179512023926,0.23893889784812927,0.14100763201713562,-0.6299501657485962,0.13756655156612396
26,844.3716548039363,865.7579580453726,852.5697420560397,839.5054931640625,838.0177518404447,0.04974365234375,0.254302978515625,0.9729817708333334,-1.7209116617838542,4.0860748291015625,4.8337554931640625,1.0153638124465942,0.6858720779418945,0.23918598890304565,1.3961529731750488,0.6388761401176453,0.6622437238693237,-0.12745602428913116,0.7249834537506104,0.7874423861503601,1.292488932609558,0.5887137651443481,1.28189218044281,0.4577952027320862,0.42616280913352966,0.0351986400783062,1.1156394481658936,0.21856984496116638,0.15222568809986115,-0.6386750936508179,0.13106651604175568
27,846.6652573805588,851.2369666466346,850.5550865760216,840.5128173828125,845.5029578575721,0.051045735677083336,0.2534993489583333,0.9725545247395834,-1.8442789713541667,4.119720458984375,5.104166666666667,0.9545324444770813,0.6858720779418945,0.24138078093528748,1.3961529731750488,0.5996752977371216,0.6605842709541321,-0.1438082456588745,0.7163079380989075,0.8047772645950317,1.336296558380127,0.546962559223175,1.2827339172363281,0.3233698308467865,0.4246738851070404,-0.022462721914052963,1.110724925994873,0.188418447971344,0.1595636010169983,-0.6460482478141785,0.12167546153068542
28,842.5894634540265,847.3006427471454,849.656240609976,840.2338679387019,838.8546072152944,0.048577202690972224,0.2531195746527778,0.9723239474826388,-1.8442789713541667,4.412146674262153,4.893154568142361,0.9545324444770813,0.6858720779418945,0.1995229423046112,1.3961529731750488,0.5812299847602844,0.6563369035720825,-0.16595296561717987,0.7001575231552124,0.8163961172103882,1.3516186475753784,0.4683033525943756,1.2698519229888916,0.28729966282844543,0.40475597977638245,-0.12229026854038239,1.0954889059066772,0.18068383634090424,0.16264572739601135,-0.650365948677063,0.10479924827814102
29,842.0625516451322,846.1228543795072,847.6570833646334,838.5291654146635,839.4280043381912,0.045125325520833336,0.2517496744791667,0.9726765950520834,-1.3508097330729167,4.448699951171875,5.595143636067708,0.9545324444770813,0.6858720779418945,0.07856374979019165,1.3961529731750488,0.5677117705345154,0.650853157043457,-0.18770651519298553,0.6606540083885193,0.8096893429756165,1.3524892330169678,0.3571288287639618,1.2223211526870728,0.25834622979164124,0.3799968361854553,-0.24287766218185425,1.0521600246429443,0.17234137654304504,0.16252584755420685,-0.6537821888923645,0.07579326629638672
30,843.4418053260216,849.1138352614182,847.7190669133113,836.2665546123798,840.6677950345553,0.043853759765625,0.2540690104166667,0.974395751953125,-1.5265146891276042,4.496053059895833,5.271148681640625,0.9559004306793213,0.6823769211769104,-0.0595409981906414,1.3961529731750488,0.5533106327056885,0.6437456607818604,-0.20294462144374847,0.5815838575363159,0.7905635833740234,1.355677843093872,0.23204058408737183,1.1195099353790283,0.23243165016174316,0.36167111992836,-0.33536383509635925,0.9561382532119751,0.1585029661655426,0.15898270905017853,-0.6590194702148438,0.03324180841445923
31,849.2843041053185,848.1375075120193,848.0755122258113,849.1603276179387,839.8929255558894,0.041229248046875,0.24959309895833334,0.9711812337239584,-1.8206024169921875,3.84307861328125,5.8431243896484375,0.9559004306793213,0.6823769211769104,-0.17040209472179413,1.3362840414047241,0.5359692573547363,0.6235926151275635,-0.21677559614181519,0.45879241824150085,0.7654056549072266,1.363687515258789,0.11165161430835724,0.9509980082511902,0.2071172595024109,0.34938910603523254,-0.3665108382701874,0.7845724821090698,0.1390528827905655,0.14386415481567383,-0.6704480051994324,-0.017256595194339752
32,853.4220862755409,852.1823096642128,843.8602365347056,846.6962491548978,841.0087350698618,0.044230143229166664,0.24772135416666666,0.9714762369791666,-1.5751139322916667,4.286702473958333,4.797617594401042,0.9559004306793213,0.6823769211769104,-0.1920372098684311,1.1309021711349487,0.5173484683036804,0.5703818202018738,-0.24530580639839172,0.3100757896900177,0.7421066761016846,1.3676437139511108,-0.005900666583329439,0.7349716424942017,0.18540261685848236,0.3331514596939087,-0.3528980612754822,0.5253918170928955,0.11699765175580978,0.10095313936471939,-0.6926154494285583,-0.06425987184047699
33,844.5111248309796,846.3088191105769,848.6799105130709,838.4051818847656,843.0388864370493,0.0441162109375,0.2521728515625,0.97349853515625,-1.7146809895833333,4.279225667317708,5.4319000244140625,0.7041558623313904,0.5107056498527527,-0.19691412150859833,0.43928998708724976,0.415820449590683,0.32073262333869934,-0.37872543931007385,0.0900796428322792,0.6476642489433289,1.340659737586975,-0.1975865364074707,0.45191362500190735,-0.09725373238325119,0.2857719361782074,-0.2884282171726227,0.0044903079979121685,0.025982925668358803,-0.1071532592177391,-0.7661032676696777,-0.11902788281440735
34,842.8839158278245,842.9923870380109,846.7892362154447,837.0724158653846,838.7306260329026,0.045735677083333336,0.24904378255208334,0.97216796875,-1.678009033203125,4.450836181640625,4.9517822265625,0.6215410828590393,0.24265405535697937,-0.20464414358139038,0.33173060417175293,0.34888604283332825,0.16172106564044952,-0.45409154891967773,0.04227064177393913,0.6317638158798218,1.3265457153320312,-0.2242266684770584,0.4568310081958771,-0.1778390258550644,0.2727998197078705,-0.2611764371395111,-0.030287867411971092,-0.03628687560558319,-0.24227696657180786,-0.8050654530525208,-0.13851432502269745
35,842.8219252366287,835.3522080641526,849.1603205754207,841.9540710449219,840.7142850435697,0.04168701171875,0.2508951822916667,0.9724934895833334,-0.9520467122395834,4.206949869791667,5.983937581380208,0.5826889872550964,0.026290183886885643,-0.2062927782535553,0.3368794023990631,0.29921847581863403,0.04859735816717148,-0.5013326406478882,0.016218487173318863,0.6289011836051941,1.3201169967651367,-0.20232169330120087,0.4737018644809723,-0.17320124804973602,0.2725783884525299,-0.24243837594985962,-0.005581732839345932,-0.08814458549022675,-0.34307006001472473,-0.8395239114761353,-0.16130372881889343
36,842.3879934457632,838.6686401367188,848.1994934082031,838.4516765887921,839.6914649376503,0.041035970052083336,0.252685546875,0.972412109375,-1.2149810791015625,3.732172648111979,6.0400136311848955,0.5729455351829529,0.012363355606794357,-0.21030305325984955,0.33903834223747253,0.25941866636276245,-0.004986402112990618,-0.5191434621810913,0.0015238263877108693,0.6388111114501953,1.307458758354187,-0.1735144555568695,0.5046481490135193,-0.15488454699516296,0.2776535153388977,-0.22412395477294922,0.02570517174899578,-0.1291460394859314,-0.3953385651111603,-0.8710789680480957,-0.18464818596839905
37,842.55970703125,837.4988989257813,851.6014624023437,841.302568359375,843.5750903320312,0.026265462239583332,0.24759928385416666,0.9722493489583334,-1.4405314127604167,4.902292887369792,2.6368204752604165,0.5561171770095825,0.012363355606794357,-0.21554233133792877,0.33903834223747253,0.22482645511627197,-0.04073849692940712,-0.5234180688858032,-0.008507044985890388,0.6392971277236938,1.2754700183868408,-0.1562480479478836,0.5264333486557007,-0.1365254670381546,0.27188819646835327,-0.1982710063457489,0.06646296381950378,-0.16033338010311127,-0.4291185140609741,-0.9005185961723328,-0.20183512568473816
38,856.0721318171575,837.4133559006912,850.6945636455829,850.8495342548077,837.0259235088641,0.057932535807291664,0.2602437337239583,0.9761759440104166,-1.2885030110677083,4.0461985270182295,-0.3725941975911458,0.5448550581932068,0.0010992377065122128,-0.21713778376579285,0.33903834223747253,0.20631453394889832,-0.08142076432704926,-0.5221146941184998,-0.013430768623948097,0.6240518689155579,1.2161128520965576,-0.15107892453670502,0.5405710935592651,-0.11453212797641754,0.24748004972934723,-0.16968096792697906,0.11658504605293274,-0.1800740510225296,-0.46580877900123596,-0.9244999885559082,-0.2082180678844452
39,852.7867032564603,836.8089599609375,849.981680063101,851.0510042630709,846.603271484375,0.045186360677083336,0.2534383138020833,0.9720458984375,-1.114044189453125,4.8362477620442705,7.404530843098958,0.5711846351623535,-0.025475110858678818,-0.21713778376579285,0.33903834223747253,0.2118758261203766,-0.12351084500551224,-0.5165426135063171,-0.014967503026127815,0.5936383008956909,1.1230825185775757,-0.15294139087200165,0.5468825101852417,-0.06890323013067245,0.20309530198574066,-0.14688187837600708,0.16403380036354065,-0.19118693470954895,-0.5071045160293579,-0.9381136894226074,-0.20635473728179932
40,841.0242309570312,837.9247694749099,848.2304922250601,838.9011019193209,850.307126558744,0.0364990234375,0.252288818359375,0.970550537109375,-0.9632619222005209,4.446207682291667,6.7204030354817705,0.5932112336158752,-0.05075967311859131,-0.22727373242378235,0.33903834223747253,0.2306799590587616,-0.15304207801818848,-0.5051513314247131,-0.016455402597784996,0.557178795337677,0.9982044100761414,-0.1517469882965088,0.544340968132019,0.0032958565279841423,0.14124926924705505,-0.1344398856163025,0.19785970449447632,-0.20370393991470337,-0.5421347618103027,-0.9372109770774841,-0.20178669691085815
41,846.4017991286057,848.9278752253606,851.7638808030349,838.9785837026743,839.6139784592849,0.039225260416666664,0.2606608072916667,0.97210693359375,-0.9670003255208334,4.102274576822917,6.001383463541667,0.5805855989456177,-0.15156911313533783,-0.233038529753685,0.3838381767272949,0.2386104315519333,-0.16927963495254517,-0.47249600291252136,-0.020171789452433586,0.5488086342811584,0.743416965007782,-0.14456258714199066,0.5721068978309631,0.14422492682933807,-0.0387757308781147,-0.1273331642150879,0.24195587635040283,-0.26313650608062744,-0.5572820901870728,-0.9072716236114502,-0.19702942669391632
42,843.4418194110577,846.246828519381,849.8112182617188,838.3741877629207,839.7999431903546,0.037078857421875,0.2581075032552083,0.97210693359375,-1.8330637613932292,5.0057220458984375,4.869893391927083,0.5460584163665771,-0.17971062660217285,-0.21913179755210876,0.3860710561275482,0.22061040997505188,-0.17634150385856628,-0.46291282773017883,-0.017723772674798965,0.5790808796882629,0.6648910045623779,-0.14259929955005646,0.6059482097625732,0.19641467928886414,-0.13545791804790497,-0.13038252294063568,0.272126168012619,-0.30040431022644043,-0.5470723509788513,-0.8964693546295166,-0.2017045021057129
43,833.5235337477463,842.2020240196815,850.7255601149338,832.7176701472356,844.9295583871694,0.0322265625,0.2578328450520833,0.9700113932291666,-1.74957275390625,2.8362019856770835,4.820048014322917,0.5098495483398438,-0.20119211077690125,-0.21913179755210876,0.38502761721611023,0.1997801959514618,-0.19260857999324799,-0.46592196822166443,-0.016090435907244682,0.6092925071716309,0.5915762186050415,-0.14351938664913177,0.6397976875305176,0.24513250589370728,-0.22324398159980774,-0.14003393054008484,0.30777499079704285,-0.3247135281562805,-0.5382435917854309,-0.8935338258743286,-0.21527771651744843
44,836.6849811260516,845.2240084134615,852.5697397085337,835.4451951246995,846.3243149977463,0.04556613498263889,0.2575141059027778,0.9715847439236112,-1.2228732638888888,4.047444661458333,5.03355238172743,0.5189390778541565,-0.23076596856117249,-0.21913179755210876,0.38419467210769653,0.18638268113136292,-0.2174273133277893,-0.4822028875350952,-0.01954094134271145,0.629901111125946,0.5117940306663513,-0.1481730043888092,0.6630130410194397,0.2893623113632202,-0.2909319996833801,-0.15632711350917816,0.3371639549732208,-0.3290339410305023,-0.5325355529785156,-0.8948754668235779,-0.23954588174819946
45,836.7624676044171,842.8064223069412,852.0428302471454,832.5781930776743,838.1417306753306,0.038899739583333336,0.2580362955729167,0.9714762369791666,-1.1265055338541667,4.852447509765625,5.363362630208333,0.5517653226852417,-0.23672129213809967,-0.23149332404136658,0.38419467210769653,0.18383221328258514,-0.24614430963993073,-0.5070175528526306,-0.027030818164348602,0.6440617442131042,0.43906059861183167,-0.16117064654827118,0.6719257235527039,0.3228405714035034,-0.33519497513771057,-0.17930945754051208,0.35156285762786865,-0.31786584854125977,-0.5270199179649353,-0.8975294828414917,-0.27355626225471497
46,841.7371074969952,849.8422100360577,853.1121403620793,843.1008676382212,835.3057204026443,0.031707763671875,0.25848388671875,0.9695231119791666,-1.4043935139973958,5.4169464111328125,5.5041758219401045,0.5918318033218384,-0.2726248800754547,-0.3000600337982178,0.38419467210769653,0.19060099124908447,-0.2741941511631012,-0.5323163270950317,-0.0336420051753521,0.6606558561325073,0.39465877413749695,-0.18138539791107178,0.669216513633728,0.3427152931690216,-0.3603518605232239,-0.20874163508415222,0.3492525815963745,-0.30016541481018066,-0.5219637155532837,-0.8997640609741211,-0.3095933794975281
47,844.2166794996995,859.4660480205829,853.5305762657753,844.4336453951322,833.6320073054387,0.02825927734375,0.2580769856770833,0.9719645182291666,-0.7576497395833334,3.5116068522135415,4.236857096354167,0.606521487236023,-0.2731073796749115,-0.3823743164539337,0.3481876254081726,0.202016681432724,-0.2982275187969208,-0.5503976941108704,-0.03480033576488495,0.6762146949768066,0.38618844747543335,-0.20978783071041107,0.6550220847129822,0.35396793484687805,-0.368204802274704,-0.24312950670719147,0.3388919234275818,-0.28147628903388977,-0.5204681158065796,-0.8982822895050049,-0.3336077332496643
48,844.9760507436899,852.5077467698318,853.7785268930288,840.4508291391226,845.6889225886418,0.042490641276041664,0.263031005859375,0.9735514322916666,-1.4318084716796875,4.099782307942708,3.5415140787760415,0.6108680367469788,-0.2731073796749115,-0.40903881192207336,0.3101818859577179,0.21185517311096191,-0.3162328898906708,-0.5582550764083862,-0.033103097230196,0.6847541928291321,0.4058903455734253,-0.24429427087306976,0.633493959903717,0.3617412745952606,-0.3762573301792145,-0.2748476266860962,0.33144035935401917,-0.2628687620162964,-0.5252533555030823,-0.8905555009841919,-0.3364976644515991
49,832.841025390625,848.4102465820313,852.08498046875,835.9355346679688,840.0454125976562,0.02608642578125,0.25343017578125,0.9730712890625,-1.8206024169921875,4.189503987630208,6.307932535807292,0.6108680367469788,-0.2753715515136719,-0.38078492879867554,0.2710514962673187,0.21674402058124542,-0.3346465528011322,-0.559819221496582,-0.03455955162644386,0.6860688924789429,0.4774881899356842,-0.3253263831138611,0.6161507368087769,0.36894872784614563,-0.3903011679649353,-0.3257404863834381,0.3258773386478424,-0.2247508466243744,-0.5459986925125122,-0.8613511323928833,-0.3116585910320282
50,849.6512841796875,854.969970703125,858.5479833984375,844.1391967773437,837.176552734375,0.035481770833333336,0.25750732421875,0.9707132975260416,-0.4747772216796875,2.510960896809896,3.841832478841146,0.6100521087646484,-0.2753715515136719,-0.32846271991729736,0.2652558982372284,0.21406063437461853,-0.341013103723526,-0.5651795268058777,-0.03809425234794617,0.6900042295455933,0.508019745349884,-0.35742196440696716,0.6216591596603394,0.3700253963470459,-0.37646567821502686,-0.37046515941619873,0.31101900339126587,-0.20825083553791046,-0.5569380521774292,-0.8460294604301453,-0.3093964755535126
51,837.8098297119141,852.6510950724283,857.1504923502604,838.3806381225586,843.5347951253256,0.047139485677083336,0.2662760416666667,0.9720458984375,-0.73272705078125,3.21502685546875,4.418792724609375,0.5928412079811096,-0.2881008982658386,-0.30391615629196167,0.275215208530426,0.20909523963928223,-0.34537357091903687,-0.5754426717758179,-0.04454625025391579,0.697396457195282,0.5199143886566162,-0.3743966221809387,0.6239128708839417,0.37606722116470337,-0.34620845317840576,-0.4317430257797241,0.28950417041778564,-0.19855642318725586,-0.5692979097366333,-0.8333759307861328,-0.31952154636383057
52,839.4616991126019,855.0708750849185,865.2842805281929,842.6676211149796,845.5932457965354,0.039632161458333336,0.2593180338541667,0.972900390625,-1.353302001953125,3.3608245849609375,5.492960611979167,0.5615015029907227,-0.29538893699645996,-0.30918246507644653,0.32125598192214966,0.20139728486537933,-0.34499433636665344,-0.5887201428413391,-0.0536416657269001,0.7013053297996521,0.5178040266036987,-0.3592759370803833,0.6168429851531982,0.39071598649024963,-0.31393101811408997,-0.4813728630542755,0.27733108401298523,-0.1961131989955902,-0.5869479179382324,-0.8264609575271606,-0.3398699164390564
53,844.0617112379807,852.2287949782151,863.7278019831731,851.1904766376202,844.5731224646935,0.04736328125,0.2623697916666667,0.9676717122395834,-0.91217041015625,2.4399312337239585,5.630035400390625,0.5444660782814026,-0.2882317006587982,-0.3062281906604767,0.3656497001647949,0.19697728753089905,-0.3411688804626465,-0.6028814315795898,-0.06242043524980545,0.7006040811538696,0.5166630148887634,-0.30749616026878357,0.6083076596260071,0.4115464389324188,-0.28764161467552185,-0.4820792078971863,0.2858602702617645,-0.1981339156627655,-0.6140856146812439,-0.8272404074668884,-0.36298996210098267
54,842.3724999060997,846.8822162334735,862.7979736328125,842.9149052546575,844.4026583158053,0.042399088541666664,0.2630208333333333,0.971710205078125,-1.7246500651041667,4.241841634114583,6.0051218668619795,0.5203436017036438,-0.3240971565246582,-0.2949027121067047,0.39510905742645264,0.2084321230649948,-0.33857056498527527,-0.6166526675224304,-0.06642703711986542,0.6884293556213379,0.518790066242218,-0.22566410899162292,0.5905728340148926,0.4318157732486725,-0.2642505466938019,-0.4338206350803375,0.3058105707168579,-0.20217983424663544,-0.6523250341415405,-0.832327663898468,-0.37832045555114746
55,850.5357131958008,847.7655792236328,865.1671180725098,848.5714302062988,833.9148330688477,0.0411376953125,0.2628580729166667,0.9744669596354166,-1.5427144368489583,5.056813557942708,5.819447835286458,0.5121303796768188,-0.35558369755744934,0.06697207689285278,0.40954047441482544,0.3136287331581116,-0.27081018686294556,-0.4160880148410797,-0.0340128131210804,0.6044320464134216,0.4901692271232605,-0.019947854802012444,0.5249515771865845,0.41606998443603516,-0.19140787422657013,-0.2544790506362915,0.2850795090198517,-0.1789638102054596,-0.7441577911376953,-0.78777015209198,-0.3211941123008728
56,845.9368849534255,843.0233835073618,860.1014404296875,845.9988731971154,839.1490572415865,0.041188557942708336,0.2562764485677083,0.96966552734375,-1.9751230875651042,4.311625162760417,5.5029296875,0.5121303796768188,-0.1970185786485672,0.33524203300476074,0.4204845130443573,0.33335351943969727,-0.16332529485225677,-0.21005219221115112,0.018924562260508537,0.590631902217865,0.46326887607574463,0.000570580770727247,0.5280641913414001,0.38765251636505127,-0.15840347111225128,-0.19347669184207916,0.26121625304222107,-0.13456545770168304,-0.7102663516998291,-0.7185419201850891,-0.2554468512535095
57,842.9142846679688,840.6901123046875,857.161904296875,842.285712890625,844.7194165039062,0.038747151692708336,0.2575887044270833,0.9702351888020834,-1.4828999837239583,5.4817454020182295,4.685465494791667,0.5121303796768188,-0.0173304695636034,0.47228893637657166,0.4956061542034149,0.34152913093566895,-0.040375299751758575,-0.02700374275445938,0.08929093927145004,0.5868009924888611,0.43982169032096863,0.02501620538532734,0.5438005924224854,0.363969624042511,-0.12826566398143768,-0.14316610991954803,0.2533758282661438,-0.07785244286060333,-0.6322956085205078,-0.6254424452781677,-0.17471428215503693
58,842.3340698242188,845.5897436523437,859.1443286132812,845.6542114257812,835.5164794921875,0.03375244140625,0.2610880533854167,0.9776204427083334,-1.2261962890625,5.737202962239583,5.131581624348958,0.48011350631713867,0.02418249472975731,0.4934347867965698,0.5446494221687317,0.34167855978012085,0.05660184472799301,0.09990056604146957,0.15111473202705383,0.5802629590034485,0.4401002526283264,0.06418675184249878,0.5603141188621521,0.35104626417160034,-0.10874021053314209,-0.11207780987024307,0.2627077102661133,-0.025619521737098694,-0.5276911854743958,-0.5311821699142456,-0.10195253044366837
59,842.6204528808594,850.7565565842849,861.1862511268029,838.9010972243088,841.6131239670974,0.03480360243055555,0.2597181532118056,0.9714287651909722,-1.8401251898871527,3.996768527560764,4.606543646918403,0.4028966426849365,0.028404124081134796,0.4934347867965698,0.5781534314155579,0.33648306131362915,0.11289751529693604,0.17147797346115112,0.18928897380828857,0.5680124759674072,0.46191877126693726,0.10855965316295624,0.5692985653877258,0.3447103202342987,-0.10145595669746399,-0.09661375731229782,0.2777705490589142,0.012416529469192028,-0.4245121479034424,-0.45641928911209106,-0.05344094708561897
60,835.817129281851,849.9351900540865,857.063960148738,835.1042550893931,846.2933232234075,0.032938639322916664,0.25628662109375,0.97027587890625,-1.5900675455729167,4.174550374348958,5.370839436848958,0.3589664399623871,0.029281245544552803,0.4934347867965698,0.5838115215301514,0.3303874433040619,0.13600145280361176,0.2041240781545639,0.20712779462337494,0.5555627942085266,0.4824907183647156,0.1493275910615921,0.5680513381958008,0.3391335606575012,-0.10138610750436783,-0.0893353596329689,0.29207170009613037,0.03631030023097992,-0.3443591892719269,-0.4089319705963135,-0.028966957703232765
61,843.6432847243088,846.0918508676382,852.7712097167969,842.0470487154447,843.1318641075721,0.0340576171875,0.2569071451822917,0.971649169921875,-1.4903767903645833,4.6543121337890625,5.373331705729167,0.401542067527771,0.03587564826011658,0.4934347867965698,0.5847494602203369,0.32927030324935913,0.1424737274646759,0.21741831302642822,0.21503949165344238,0.544456958770752,0.4825555682182312,0.17349395155906677,0.5541594624519348,0.33357641100883484,-0.10188452154397964,-0.08565392345190048,0.3062381446361542,0.05209726467728615,-0.2929956912994385,-0.3859964907169342,-0.01613527350127697
62,843.0543870192307,845.4564678485577,855.7621882512019,841.6131310096154,838.1882253793569,0.036783854166666664,0.2587890625,0.9726969401041666,-1.2860107421875,4.448699951171875,4.999491373697917,0.4237675964832306,0.06809336692094803,0.4934347867965698,0.5860673189163208,0.335932195186615,0.14597901701927185,0.22416682541370392,0.22091424465179443,0.5387471318244934,0.4605412483215332,0.1877010017633438,0.5332774519920349,0.330602765083313,-0.09986241161823273,-0.08330732583999634,0.32177233695983887,0.06556610018014908,-0.26356980204582214,-0.3787400424480438,-0.0016174387419596314
63,837.2273864746094,846.2003385103666,854.010991023137,838.4206801194412,841.2876845139724,0.034383138020833336,0.2585957845052083,0.97271728515625,-1.3508097330729167,4.3826548258463545,5.335947672526042,0.4237675964832306,0.10771436989307404,0.4934347867965698,0.5860673189163208,0.3470359444618225,0.15142694115638733,0.22839313745498657,0.22706609964370728,0.5365747213363647,0.4237733781337738,0.20577937364578247,0.5173348188400269,0.3301573395729065,-0.09992819279432297,-0.08100118488073349,0.33414900302886963,0.07986797392368317,-0.24501430988311768,-0.379518985748291,0.020087385550141335
64,839.1025672325721,848.5094416691707,856.5680518517128,838.9475895808293,839.1180607722356,0.034444173177083336,0.2604777018229167,0.97027587890625,-1.6124979654947917,4.97955322265625,5.542805989583333,0.41803693771362305,0.12328912317752838,0.4934347867965698,0.5860673189163208,0.35568949580192566,0.15865463018417358,0.23050136864185333,0.23547478020191193,0.533950924873352,0.391569048166275,0.2319735884666443,0.5071061849594116,0.32590365409851074,-0.10752846300601959,-0.07789818197488785,0.33590054512023926,0.09658974409103394,-0.2305072396993637,-0.3825841248035431,0.04516787827014923
65,844.5731177696815,850.6945612980769,855.0338111290565,846.0608614408053,842.4499863844651,0.029825846354166668,0.2577785915798611,0.9716525607638888,-1.3823784722222223,4.59657457139757,5.679050021701389,0.41526973247528076,0.12362870573997498,0.4934347867965698,0.5860673189163208,0.35795336961746216,0.16498233377933502,0.23102015256881714,0.2477894425392151,0.5287438631057739,0.3732730746269226,0.24961942434310913,0.5021428465843201,0.3062092959880829,-0.12000691145658493,-0.07483356446027756,0.3235127627849579,0.1134057566523552,-0.21819506585597992,-0.3846389651298523,0.06669223308563232
66,841.4736515925481,850.6170771672175,856.056645320012,842.7289358285757,841.504648061899,0.025634765625,0.2596435546875,0.9708048502604166,-1.5950520833333333,4.762725830078125,5.767110188802083,0.41526973247528076,0.12362870573997498,0.4934347867965698,0.5860673189163208,0.35446110367774963,0.1691332459449768,0.23121802508831024,0.2649024724960327,0.5106536149978638,0.3637172281742096,0.24492917954921722,0.4905773103237152,0.26358434557914734,-0.13122355937957764,-0.0769631564617157,0.2990821301937103,0.1282065063714981,-0.20705899596214294,-0.3844539523124695,0.08094947785139084
67,849.4256396484375,855.11501953125,855.0021997070312,845.5575073242187,838.2725244140624,0.029052734375,0.2588094075520833,0.9728495279947916,-1.7558034261067708,3.6000823974609375,5.537821451822917,0.41526973247528076,0.12362870573997498,0.4934347867965698,0.5647715926170349,0.34729185700416565,0.17187146842479706,0.23175576329231262,0.2859402298927307,0.4787425398826599,0.3632300794124603,0.2159932255744934,0.47358015179634094,0.20672637224197388,-0.13834255933761597,-0.09130194783210754,0.2718771696090698,0.14165642857551575,-0.19606488943099976,-0.38285842537879944,0.08984384685754776
68,838.2463404337565,855.5051905314127,852.9029261271158,838.8003616333008,833.3272247314453,0.039540608723958336,0.2574055989583333,0.9728495279947916,-1.5040842692057292,3.327178955078125,5.365854899088542,0.41526973247528076,0.12362870573997498,0.4934347867965698,0.5331659317016602,0.3372883200645447,0.1738155633211136,0.23069965839385986,0.3073941171169281,0.4408411979675293,0.36529916524887085,0.1683887094259262,0.4511822462081909,0.1704283207654953,-0.14428436756134033,-0.12038153409957886,0.2559906244277954,0.15478909015655518,-0.1857665628194809,-0.381968230009079,0.0978195071220398
69,842.6725341796875,858.1611694335937,853.82564453125,853.26154296875,851.8915698242188,0.028188069661458332,0.2543131510416667,0.9711812337239584,-2.578252156575521,4.745279947916667,4.745279947916667,0.4216349720954895,0.12795011699199677,0.4934347867965698,0.5294346213340759,0.3164869546890259,0.15720248222351074,0.1900435835123062,0.3247944116592407,0.4028034806251526,0.35251712799072266,0.08477278053760529,0.37492847442626953,0.2682052552700043,-0.17649629712104797,-0.22593927383422852,0.29116353392601013,0.16760675609111786,-0.18082262575626373,-0.40028417110443115,0.10971318185329437
70,841.566641000601,856.5680471567007,855.0648075984075,847.9825298602765,843.5038076547476,0.033610026041666664,0.2563069661458333,0.9739786783854166,-1.6124979654947917,4.0212758382161455,5.440622965494792,0.43719980120658875,0.12795011699199677,0.4934347867965698,0.527055561542511,0.3128668963909149,0.11450521647930145,0.118947833776474,0.30628105998039246,0.413998544216156,0.3384808599948883,0.0575435571372509,0.32962682843208313,0.3440650403499603,-0.20397509634494781,-0.3065418303012848,0.3201179802417755,0.15560322999954224,-0.1954684555530548,-0.4323401153087616,0.09941554069519043
71,840.4508314866287,851.8568608210637,857.1104548527644,846.8047274076022,839.5364872859075,0.02874755859375,0.2509358723958333,0.97161865234375,-1.8031565348307292,4.4549306233723955,5.178934733072917,0.442503958940506,0.11857906728982925,0.4590740501880646,0.5138765573501587,0.31398656964302063,0.039108190685510635,-0.0018639842746779323,0.26957106590270996,0.43126410245895386,0.323377788066864,0.024532100185751915,0.2984645664691925,0.39227762818336487,-0.22649605572223663,-0.38995590806007385,0.3353433609008789,0.13086606562137604,-0.22847065329551697,-0.4873926341533661,0.07139939814805984
72,843.550290621244,851.9498478816106,856.2736018254207,839.2885272686298,839.133556659405,0.03448486328125,0.2552897135416667,0.97589111328125,-1.36077880859375,4.26177978515625,5.45806884765625,0.44322219491004944,0.04686848819255829,0.3028559982776642,0.47962504625320435,0.3180949091911316,-0.055885352194309235,-0.16382741928100586,0.2265060842037201,0.44332247972488403,0.3029962480068207,-0.02455795742571354,0.29078689217567444,0.4096998870372772,-0.23759040236473083,-0.4474479556083679,0.3317778706550598,0.10197276622056961,-0.283515602350235,-0.5647190809249878,0.031013822183012962
73,833.3065608097957,853.360095684345,853.5150733360878,837.7542935884916,840.0324026254507,0.032338460286458336,0.25018310546875,0.9734090169270834,-2.100982666015625,3.418146769205729,5.4618072509765625,0.4427265524864197,-0.026939479634165764,0.030281968414783478,0.45745420455932617,0.3268873393535614,-0.13786467909812927,-0.32420700788497925,0.1923477053642273,0.44259753823280334,0.26976272463798523,-0.08730387687683105,0.3084968626499176,0.4077809154987335,-0.24417394399642944,-0.46821340918540955,0.3121389150619507,0.0801742821931839,-0.35660791397094727,-0.6524094939231873,-0.008615018799901009
74,836.5610046386719,851.1129878117488,856.8005136343149,837.3823570838341,844.8210777869591,0.03985595703125,0.2528076171875,0.9743245442708334,-1.667327880859375,3.3894856770833335,4.914754231770833,0.43302685022354126,-0.057137902826070786,-0.23688200116157532,0.44519928097724915,0.34102046489715576,-0.17980560660362244,-0.42483261227607727,0.1741575300693512,0.43369418382644653,0.22260549664497375,-0.15445472300052643,0.3460095226764679,0.39991137385368347,-0.2571539580821991,-0.4689830243587494,0.2821662127971649,0.07066305726766586,-0.432323694229126,-0.7301605343818665,-0.03734700381755829
75,844.9450519268329,854.010988675631,854.1659639798678,839.6914555476262,849.1758258526141,0.033274332682291664,0.2505696614583333,0.9715169270833334,-1.48040771484375,4.615681966145833,5.6337738037109375,0.41889455914497375,-0.0660996064543724,-0.366688996553421,0.411846399307251,0.35574978590011597,-0.18604016304016113,-0.4585079252719879,0.16821829974651337,0.4317326843738556,0.16911305487155914,-0.1976621448993683,0.38746377825737,0.39398470520973206,-0.282733291387558,-0.46560195088386536,0.24762560427188873,0.0694388598203659,-0.4925191104412079,-0.7792442440986633,-0.05458186939358711
76,829.0757868840144,851.8568561260516,852.8486868051382,839.5519855205829,840.0479008601262,0.02972412109375,0.2538248697916667,0.9750773111979166,-1.2286885579427083,4.6169281005859375,5.527852376302083,0.42050445079803467,-0.08933544903993607,-0.38370388746261597,0.3829105496406555,0.36441361904144287,-0.17533527314662933,-0.4596620798110962,0.1674477458000183,0.4475657045841217,0.11396922916173935,-0.22117693722248077,0.42250126600265503,0.3918805718421936,-0.31759941577911377,-0.46012887358665466,0.21819055080413818,0.06854241341352463,-0.5323667526245117,-0.7967299818992615,-0.06613114476203918
77,843.9842200646034,856.6610318697416,850.4156142014724,838.7306307279147,842.0315575232872,0.029591878255208332,0.2513224283854167,0.97186279296875,-1.7695109049479167,4.4424692789713545,4.877370198567708,0.44785380363464355,-0.11816636472940445,-0.3770119547843933,0.38354921340942383,0.36510607600212097,-0.1589430272579193,-0.44920769333839417,0.16753172874450684,0.47101855278015137,0.06692333519458771,-0.25699615478515625,0.4427163004875183,0.39472898840904236,-0.34897762537002563,-0.45039525628089905,0.2046557366847992,0.0628635585308075,-0.5616723299026489,-0.7898775339126587,-0.07819142937660217
78,848.1839928260216,853.6545480581431,854.6463740422175,844.7745830829327,842.7444387582632,0.033793131510416664,0.2559407552083333,0.9764404296875,-1.2760416666666667,4.20196533203125,4.969584147135417,0.5312512516975403,-0.1263536810874939,-0.3423254191875458,0.37648308277130127,0.36283746361732483,-0.14545594155788422,-0.43523257970809937,0.16428141295909882,0.5034483075141907,0.030671045184135437,-0.3256213068962097,0.4515940845012665,0.4083055853843689,-0.3544996380805969,-0.4425945281982422,0.20855991542339325,0.052025917917490005,-0.5878583192825317,-0.7718344926834106,-0.0946592390537262
79,838.1572336050181,848.9278728778546,858.3502385066106,837.8162841796875,840.3268456092247,0.032521565755208336,0.25006103515625,0.97412109375,-2.005030314127604,3.596343994140625,5.208841959635417,0.5748998522758484,-0.11727593839168549,-0.33271685242652893,0.3567682206630707,0.36423301696777344,-0.13933604955673218,-0.42226114869117737,0.15430916845798492,0.5422238707542419,0.007520769722759724,-0.3911683261394501,0.4500272572040558,0.43563568592071533,-0.31988561153411865,-0.4524329602718353,0.21820484101772308,0.03962234407663345,-0.6111395359039307,-0.7530553936958313,-0.11532752215862274
80,837.9557565542368,852.9726726825421,856.1806147648738,837.4908400315505,840.4198397122897,0.035013834635416664,0.247711181640625,0.9725850423177084,-1.9713846842447917,4.56085205078125,5.1776885986328125,0.5799486041069031,-0.053944773972034454,-0.3351037800312042,0.3402605354785919,0.3676089346408844,-0.14097042381763458,-0.4124208390712738,0.1356600672006607,0.5919210314750671,-0.005528355948626995,-0.3958055377006531,0.4513847827911377,0.4687606394290924,-0.2600124180316925,-0.48554539680480957,0.22558128833770752,0.027689600363373756,-0.6330423355102539,-0.7404032349586487,-0.13811169564723969
81,844.8805859375,862.6578735351562,855.0505419921875,840.029306640625,836.2417553710937,0.030741373697916668,0.24835205078125,0.9743448893229166,-1.1913045247395833,4.226888020833333,5.769602457682292,0.5799486041069031,-0.02683372236788273,-0.36208227276802063,0.32673323154449463,0.3643591105937958,-0.14678221940994263,-0.40484902262687683,0.10920479148626328,0.6453814506530762,-0.019094450399279594,-0.34265124797821045,0.4568897783756256,0.4919825494289398,-0.20346352458000183,-0.5284884572029114,0.2294042706489563,0.01441209577023983,-0.658223032951355,-0.7368295788764954,-0.16267497837543488
82,837.6923014322916,865.2930450439453,857.2344334920248,836.5674565633138,839.3543930053711,0.029256184895833332,0.24908447265625,0.9735649956597222,-1.6934967041015625,4.126262664794922,5.044040679931641,0.5799486041069031,-1.2798355783161242e-05,-0.38729187846183777,0.32260915637016296,0.34973400831222534,-0.15234237909317017,-0.39852532744407654,0.07957078516483307,0.690054714679718,-0.0023971041664481163,-0.2706737220287323,0.46335268020629883,0.49331146478652954,-0.1633893847465515,-0.5579732060432434,0.22621847689151764,-0.003511283313855529,-0.6883609890937805,-0.740234375,-0.19123554229736328
83,841.2876868614784,871.5074697641226,856.7695148174579,838.1727294921875,841.4116633488582,0.02862548828125,0.24639892578125,0.9729207356770834,-1.734619140625,3.9826456705729165,4.436238606770833,0.5799486041069031,0.0012811932247132063,-0.3470396101474762,0.32148855924606323,0.32904252409935,-0.15534387528896332,-0.3939981460571289,0.054419517517089844,0.7150123715400696,0.08265763521194458,-0.21998098492622375,0.46583622694015503,0.46887680888175964,-0.1365804225206375,-0.5594620704650879,0.20974428951740265,-0.02612917684018612,-0.7179416418075562,-0.7439426183700562,-0.22307324409484863
84,846.5257850060096,881.7821960449219,860.767824613131,845.595944918119,832.4232130784255,0.0352783203125,0.24849446614583334,0.9745585123697916,-1.5414683024088542,5.2300262451171875,4.4300079345703125,0.5799486041069031,0.0034494895953685045,-0.3216458857059479,0.31993067264556885,0.31329309940338135,-0.15482574701309204,-0.3914576470851898,0.03831096738576889,0.722221851348877,0.2264668345451355,-0.19778203964233398,0.466980516910553,0.42368242144584656,-0.11777419596910477,-0.5381860136985779,0.17884783446788788,-0.04949015751481056,-0.737334668636322,-0.7418599128723145,-0.251822292804718
85,843.5967876727765,906.9343496469351,860.5508610652043,843.2868441068209,839.846437894381,0.041239420572916664,0.2531941731770833,0.9791666666666666,-0.4137166341145833,3.7209574381510415,4.839986165364583,0.5778498649597168,0.0034494895953685045,-0.3391331136226654,0.32518625259399414,0.3100653290748596,-0.1504499465227127,-0.3895999789237976,0.028538476675748825,0.714686930179596,0.38600367307662964,-0.1905554085969925,0.46411100029945374,0.3715549111366272,-0.10216692090034485,-0.5059385895729065,0.14394965767860413,-0.06847814470529556,-0.7404888272285461,-0.7347964644432068,-0.2699926793575287
86,842.97875,890.5084252929687,859.0476196289062,841.4476245117188,846.3150244140625,0.031077067057291668,0.24711100260416666,0.9709879557291666,-0.5968983968098959,3.9352925618489585,6.372731526692708,0.6005440950393677,0.0034494895953685045,-0.34881508350372314,0.3734501600265503,0.3172476589679718,-0.14205852150917053,-0.3867807984352112,0.02120884880423546,0.6994226574897766,0.5391073226928711,-0.1830875426530838,0.4494577944278717,0.33081191778182983,-0.09150463342666626,-0.4722748398780823,0.12117235362529755,-0.08282505720853806,-0.7278884053230286,-0.7283108830451965,-0.27450186014175415
87,837.1627406529018,865.1491315569197,857.4013654436384,839.4536865234375,837.2203072684151,0.024576822916666668,0.2576226128472222,0.97314453125,-0.7932891845703125,4.9937591552734375,5.9268646240234375,0.6280603408813477,0.0011737566674128175,-0.32894420623779297,0.5259651839733124,0.3285496234893799,-0.12103016674518585,-0.3810499459505081,0.01727537252008915,0.6784632802009583,0.8146838843822479,-0.16651614755392075,0.4040304869413376,0.31039291620254517,-0.03821777692064643,-0.4369293600320816,0.12536965310573578,-0.10965436697006226,-0.6911714673042297,-0.7182124853134155,-0.25497129559516907
88,841.5511404184194,853.329103910006,853.1586327185997,837.8782700758713,846.8047321026141,0.025126139322916668,0.25982666015625,0.9764200846354166,-1.6498819986979167,4.538421630859375,4.533437093098958,0.6352949738502502,-0.019002621993422508,-0.3205157220363617,0.5668944716453552,0.3229232132434845,-0.10057752579450607,-0.379293292760849,0.022998511791229248,0.672970175743103,1.0901418924331665,-0.15192082524299622,0.34206700325012207,0.3125513792037964,0.07083733379840851,-0.4233158230781555,0.1511559933423996,-0.1252174973487854,-0.6876266002655029,-0.7062714099884033,-0.24403448402881622
89,842.7444340632512,861.6511699969952,859.9774592472957,841.7526033841647,839.1025601900541,0.02581787109375,0.255078125,0.968701171875,-1.5352376302083333,4.640604654947917,5.2250417073567705,0.6396918892860413,-0.028728770092129707,-0.30568042397499084,0.5668944716453552,0.3078640103340149,-0.09626618772745132,-0.38539671897888184,0.027155786752700806,0.6703053712844849,1.2221189737319946,-0.14291517436504364,0.2915276885032654,0.31337544322013855,0.15014851093292236,-0.4226996600627899,0.16556456685066223,-0.1417883187532425,-0.6949322819709778,-0.6902914643287659,-0.24006742238998413
90,842.9768934983474,886.400395320012,866.8272752028245,844.0152212289663,844.4181424654447,0.026194254557291668,0.257354736328125,0.973480224609375,-1.4542388916015625,4.2057037353515625,5.51788330078125,0.6486883759498596,-0.03206585347652435,-0.2923606038093567,0.5668944716453552,0.2938779890537262,-0.0992734283208847,-0.3950093984603882,0.02521069161593914,0.6578773260116577,1.3099703788757324,-0.11933232098817825,0.23374837636947632,0.30880019068717957,0.20869648456573486,-0.42595168948173523,0.16922739148139954,-0.15810531377792358,-0.6976632475852966,-0.67584228515625,-0.24267081916332245
91,842.868412898137,894.9394155649038,860.6283475435697,841.89207810622,843.1008746807391,0.025187174479166668,0.2550048828125,0.972900390625,-1.54022216796875,4.005076090494792,5.988922119140625,0.6577790379524231,-0.028959330171346664,-0.28619351983070374,0.5668944716453552,0.2874521017074585,-0.09994827210903168,-0.39655572175979614,0.015430057421326637,0.637341320514679,1.3764623403549194,-0.05950356647372246,0.1802305281162262,0.2975105345249176,0.24132564663887024,-0.4363630712032318,0.16311763226985931,-0.1708749532699585,-0.6734322309494019,-0.6660540699958801,-0.24497902393341064
92,842.2950204702524,910.1732881986178,853.2361238919772,838.9630878155048,845.595942570613,0.024149576822916668,0.2559712727864583,0.9723002115885416,-1.5751139322916667,4.2057037353515625,4.989522298177083,0.659327507019043,0.00364756234921515,-0.2547939419746399,0.5668944716453552,0.28629639744758606,-0.08719746768474579,-0.38124576210975647,0.0005410374724306166,0.6045479774475098,1.4429028034210205,0.02404857985675335,0.14621974527835846,0.27233636379241943,0.25820791721343994,-0.4543866813182831,0.15328529477119446,-0.17653170228004456,-0.6144331097602844,-0.6603922843933105,-0.23748420178890228
93,840.7762709397537,922.493666428786,854.7548593374399,841.2257009652944,843.6277817946213,0.023152669270833332,0.256500244140625,0.97265625,-1.4691925048828125,4.496053059895833,4.7739410400390625,0.6244398951530457,0.03859029337763786,-0.22983475029468536,0.5668944716453552,0.2825809121131897,-0.06440331041812897,-0.3560495972633362,-0.013822578825056553,0.5583603978157043,1.5110690593719482,0.11653093993663788,0.1443338841199875,0.22386083006858826,0.2625313699245453,-0.47113946080207825,0.14665155112743378,-0.1716136336326599,-0.5376207232475281,-0.6584423780441284,-0.21616116166114807
94,843.2868347167969,891.793459378756,856.1031306340144,840.1563791128306,838.0177588829628,0.0257568359375,0.25750732421875,0.970703125,-1.398162841796875,3.93280029296875,6.0524749755859375,0.5677317380905151,0.034775130450725555,-0.22521242499351501,0.5668944716453552,0.27266958355903625,-0.04512909799814224,-0.3367152810096741,-0.023058777675032616,0.49111539125442505,1.5665613412857056,0.20649150013923645,0.15278834104537964,0.15414313971996307,0.264874666929245,-0.47691401839256287,0.14298796653747559,-0.15677811205387115,-0.4669601619243622,-0.6608589887619019,-0.18592694401741028
95,841.0707280085637,837.2893747182993,855.6847017728365,840.2493661733774,839.1955495981069,0.024820963541666668,0.2574869791666667,0.9743855794270834,-1.3258870442708333,4.3365478515625,5.615081787109375,0.5408406853675842,0.030289312824606895,-0.22971580922603607,0.5668944716453552,0.2619820535182953,-0.03730458766222,-0.329068660736084,-0.02497320994734764,0.3980702757835388,1.6226897239685059,0.2811022102832794,0.15141041576862335,0.08503106981515884,0.26483970880508423,-0.47404593229293823,0.13582861423492432,-0.13702253997325897,-0.41737276315689087,-0.6669452786445618,-0.15714211761951447
96,843.6277841421274,830.1606140136719,858.0247920109675,841.4736539400541,835.2282362717849,0.024993896484375,0.2552998860677083,0.97174072265625,-1.9389851888020833,3.8692474365234375,4.4424692789713545,0.5622567534446716,0.02315843291580677,-0.22977104783058167,0.5683449506759644,0.2583383619785309,-0.03849074989557266,-0.3246864378452301,-0.01943778619170189,0.2874346971511841,1.697935938835144,0.32801946997642517,0.135212704539299,0.04548167064785957,0.27092400193214417,-0.4721783697605133,0.12236997485160828,-0.11763597279787064,-0.3896300494670868,-0.6738779544830322,-0.1368769407272339
97,837.7078012319712,829.1842839167668,855.0803011380709,835.8171316293569,836.43702345628,0.027364095052083332,0.253173828125,0.9742431640625,-1.6860198974609375,4.007568359375,4.5458984375,0.576096773147583,0.018195822834968567,-0.22977104783058167,0.5691801905632019,0.26318278908729553,-0.04123563691973686,-0.31215810775756836,-0.00848308950662613,0.18918722867965698,1.7944390773773193,0.35000038146972656,0.11453834921121597,0.038864023983478546,0.2887650430202484,-0.47948727011680603,0.10521840304136276,-0.10232315212488174,-0.376706600189209,-0.6794401407241821,-0.1272067278623581
98,838.1417236328125,850.5395883413462,855.7156911996694,837.7542912409856,834.2364055926984,0.026438395182291668,0.253387451171875,0.9717508951822916,-1.5452067057291667,4.010060628255208,5.5041758219401045,0.576096773147583,0.01934337057173252,-0.2388428896665573,0.5691801905632019,0.2691444158554077,-0.04402593523263931,-0.291902095079422,0.0025163344107568264,0.11934858560562134,1.8902802467346191,0.3583357036113739,0.09775831550359726,0.041162487119436264,0.3205406665802002,-0.49706029891967773,0.08697029948234558,-0.09360149502754211,-0.36910420656204224,-0.683842122554779,-0.12666302919387817
99,847.1146803635818,876.1566678560697,860.3338904747596,842.0935457669772,849.594247671274,0.022684733072916668,0.2567545572916667,0.9729715983072916,-1.3508097330729167,4.498545328776042,5.408223470052083,0.576096773147583,0.024614566937088966,-0.2388428896665573,0.5691801905632019,0.26708483695983887,-0.047303907573223114,-0.2723521888256073,0.007676620036363602,0.07470014691352844,1.970127820968628,0.3608246147632599,0.08994217216968536,0.03304360434412956,0.36197271943092346,-0.5240401029586792,0.0629807561635971,-0.09257549047470093,-0.3618057370185852,-0.6863839626312256,-0.13251373171806335
100,838.5756554236779,908.6390498234675,857.2344383826622,840.0168996957632,843.0233858548678,0.021189371744791668,0.2533772786458333,0.971832275390625,-1.861724853515625,3.909123738606771,4.8113250732421875,0.576096773147583,0.02913961373269558,-0.2388428896665573,0.5691801905632019,0.25622233748435974,-0.051254089921712875,-0.260202556848526,0.0035327181685715914,0.041958652436733246,2.03048038482666,0.3598381280899048,0.08704400807619095,0.013781743124127388,0.4029139578342438,-0.559027373790741,0.027461640536785126,-0.09602990746498108,-0.35599809885025024,-0.6859973669052124,-0.14171046018600464
101,847.0681903545673,936.689206636869,856.6300424429087,844.0927030123197,848.912362905649,0.029246012369791668,0.2548726399739583,0.974029541015625,-1.308441162109375,3.380762736002604,5.343424479166667,0.5661852359771729,0.03109111450612545,-0.2388428896665573,0.5691801905632019,0.245526522397995,-0.05436624959111214,-0.2560134530067444,-0.009627644903957844,0.02408982813358307,2.076986312866211,0.3585808277130127,0.08641283959150314,-0.0029663927853107452,0.43044528365135193,-0.5997220277786255,-0.018627671524882317,-0.09782958030700684,-0.35421934723854065,-0.6846123933792114,-0.15206807851791382
102,839.4125084510216,947.2273864746094,869.8802490234375,840.4663273737981,842.6359487680288,0.02789306640625,0.2530721028645833,0.97259521484375,-1.099090576171875,3.3246866861979165,6.270548502604167,0.5560897588729858,0.03667552024126053,-0.2388428896665573,0.5077869296073914,0.24632969498634338,-0.0565374419093132,-0.25775182247161865,-0.028174923732876778,0.008825892582535744,2.1133158206939697,0.3622909188270569,0.08200915902853012,0.001126658171415329,0.4332454800605774,-0.6302573084831238,-0.06731817126274109,-0.09520653635263443,-0.3549322783946991,-0.6868038773536682,-0.15965881943702698
103,843.224848820613,946.2820504995493,889.2673950195312,844.5421189528245,837.7542982835037,0.030415852864583332,0.2555440266927083,0.9732767740885416,-1.1551666259765625,4.26177978515625,5.011952718098958,0.5509278774261475,0.04722408205270767,-0.24302303791046143,0.37924548983573914,0.26115337014198303,-0.057465218007564545,-0.26256901025772095,-0.047399137169122696,-1.5640865967725404e-05,2.1434316635131836,0.38583847880363464,0.07247571647167206,0.033604901283979416,0.4180452227592468,-0.6373196840286255,-0.10365728288888931,-0.0919060930609703,-0.35429441928863525,-0.6953120231628418,-0.16033919155597687
104,837.9824194335938,969.4021923828125,938.7150170898437,839.416845703125,841.4153857421875,0.02935791015625,0.2576497395833333,0.9721272786458334,-1.2386576334635417,4.117228190104167,5.482991536458333,0.5444026589393616,0.05729149654507637,-0.21584980189800262,0.3906795382499695,0.28015151619911194,-0.0570809431374073,-0.2644937038421631,-0.0635964497923851,-0.007932320237159729,2.170651912689209,0.5291598439216614,0.06122362241148949,0.08749690651893616,0.3911675214767456,-0.5799397826194763,-0.11769888550043106,-0.09219380468130112,-0.3494373857975006,-0.7062203288078308,-0.15534844994544983
105,840.497323843149,1012.3471444936899,1008.7827547513522,839.0560701810397,831.4778794508713,0.0302734375,0.257080078125,0.97235107421875,-1.2286885579427083,3.7209574381510415,5.562744140625,0.5004175305366516,0.0949428454041481,-0.12620098888874054,0.39386045932769775,0.29514217376708984,-0.07507393509149551,-0.28090786933898926,-0.07065969705581665,-0.020529989153146744,2.1968469619750977,1.2841827869415283,0.04503690451383591,0.1936320811510086,0.3651377558708191,-0.41467007994651794,-0.10270919650793076,-0.10497303307056427,-0.355280339717865,-0.732825756072998,-0.15833315253257751
106,839.465205078125,990.8219799804688,1044.830771484375,839.4813208007813,834.2915747070313,0.028544108072916668,0.2567850748697917,0.972381591796875,-1.7171732584635417,4.1508738199869795,5.2449798583984375,0.47641706466674805,0.16435444355010986,0.11421500146389008,0.39386045932769775,0.2972465753555298,-0.10387425869703293,-0.29037487506866455,-0.053587522357702255,-0.02234225533902645,2.201911687850952,1.6177959442138672,0.04552476853132248,0.22128485143184662,0.41861170530319214,-0.1950313150882721,-0.10183306783437729,-0.11501612514257431,-0.3795481026172638,-0.7389496564865112,-0.17680490016937256
107,835.9462687174479,980.3296712239584,1109.8046468098958,833.7973124186198,831.5364278157552,0.0302734375,0.2549235026041667,0.97247314453125,-1.5227762858072917,4.508514404296875,4.750264485677083,0.4565391540527344,0.37372344732284546,0.24808602035045624,0.39386045932769775,0.3068435788154602,-0.14109966158866882,-0.30667898058891296,-0.02063024789094925,-0.018908731639385223,2.2108590602874756,1.8567695617675781,0.05036623775959015,0.2295970469713211,0.5178548097610474,-0.020360205322504044,-0.1158079206943512,-0.1268007457256317,-0.41834238171577454,-0.7463493943214417,-0.20440584421157837
108,835.1662433330829,1024.4970397949219,1049.0447974571814,837.5993323692909,841.5511404184194,0.03179931640625,0.256988525390625,0.9725545247395834,-1.1501820882161458,3.9053853352864585,5.5590057373046875,0.43637603521347046,0.37372344732284546,0.2447441667318344,0.39186814427375793,0.32394731044769287,-0.1720087230205536,-0.3230704963207245,0.021047361195087433,-0.013043105602264404,2.228750705718994,1.884477972984314,0.050060782581567764,0.22589384019374847,0.5314993262290955,0.0029190569184720516,-0.14276167750358582,-0.13869917392730713,-0.4631561040878296,-0.7522766590118408,-0.23579348623752594
109,841.7835998535156,934.1941387469952,942.2372483473557,840.4818279559796,840.171877347506,0.024861653645833332,0.2555135091145833,0.9697672526041666,-1.3769785563151042,3.985137939453125,5.2026112874348955,0.4475209414958954,0.37372344732284546,0.2447441667318344,0.25584807991981506,0.3505553901195526,-0.1795482039451599,-0.3307150900363922,0.07623681426048279,0.030218176543712616,2.25784969329834,1.947139024734497,0.06421730667352676,0.21133828163146973,0.5644739270210266,0.05382140353322029,-0.19383448362350464,-0.1581977754831314,-0.5276786088943481,-0.7433421015739441,-0.29381486773490906
110,839.2420466496394,918.8672860952524,889.2828956017128,841.4891451322115,842.6669475848859,0.029266357421875,0.2603912353515625,0.96893310546875,0.8785247802734375,3.4131622314453125,2.878570556640625,0.4139651358127594,0.37372344732284546,0.2447441667318344,0.19551973044872284,0.3547322154045105,-0.17041698098182678,-0.337507039308548,0.07655569165945053,0.06903883069753647,2.255801200866699,1.983778476715088,0.09856609255075455,0.2024989277124405,0.5795889496803284,0.08396654576063156,-0.18888221681118011,-0.1642526537179947,-0.5332891345024109,-0.7350641489028931,-0.31372472643852234
111,845.6424302321213,911.1031235914963,850.9115248460037,849.9661841759315,839.4435025728666,0.039571126302083336,0.2717488606770833,0.9702351888020834,-1.24114990234375,3.9676920572916665,6.263071695963542,0.38341769576072693,0.37372344732284546,0.2447441667318344,0.19307158887386322,0.3578157424926758,-0.16219109296798706,-0.3524623215198517,0.07226525247097015,0.11110622435808182,2.241434097290039,2.02463960647583,0.1404300183057785,0.19894234836101532,0.58880615234375,0.11787568777799606,-0.1503148078918457,-0.16621030867099762,-0.5335928797721863,-0.7269057631492615,-0.32208892703056335
112,845.6542114257812,886.3663012695313,833.0183154296875,841.3347998046875,831.42271484375,0.027994791666666668,0.2621053059895833,0.9737040201822916,-2.914708455403646,5.201365152994792,6.1122894287109375,0.4887109100818634,0.37372344732284546,0.2447441667318344,0.3061580955982208,0.3656342029571533,-0.15740083158016205,-0.37022823095321655,0.08472634851932526,0.14702950417995453,2.2207398414611816,2.070183515548706,0.17386487126350403,0.21500468254089355,0.5892472863197327,0.1561661958694458,-0.073918916285038,-0.16175977885723114,-0.539168119430542,-0.7192150950431824,-0.3127926290035248
113,842.7599322979266,865.3550274188702,817.9022334172175,843.9222318209135,847.1456744854266,0.028889973958333332,0.2535196940104167,0.9698282877604166,-2.8137715657552085,4.854939778645833,4.88983154296875,0.6545392274856567,0.37372344732284546,0.2447441667318344,0.45707064867019653,0.3797236680984497,-0.15630875527858734,-0.3819592297077179,0.12029030919075012,0.17055661976337433,2.201071262359619,2.121210813522339,0.2003309279680252,0.2559777498245239,0.5859524011611938,0.1996806263923645,0.033107463270425797,-0.15027786791324615,-0.5498107075691223,-0.7128517627716064,-0.2872767448425293
114,844.7280895526593,847.7733166034405,828.3009338378906,839.6914637638972,846.1151029146635,0.0305328369140625,0.2563222249348958,0.9725240071614584,-1.705334981282552,4.225018819173177,5.289217631022136,0.7560581862926483,0.3734896779060364,0.2447441667318344,0.533210039138794,0.3996257781982422,-0.16662074625492096,-0.3775562345981598,0.1824878230690956,0.1848585456609726,2.1685997247695923,2.2123074531555176,0.2397240325808525,0.32124048471450806,0.6004783809185028,0.2793453484773636,0.18515019118785858,-0.13402092456817627,-0.559683233499527,-0.7071941494941711,-0.24619465321302414
115,841.1636986365685,807.0076012244591,869.0588871882512,837.537344125601,837.831787109375,0.024871826171875,0.2540690104166667,0.9707743326822916,-1.6124979654947917,4.2630259195963545,5.3147633870442705,0.7676427960395813,0.37221312522888184,0.2447441667318344,0.5351061224937439,0.40515896677970886,-0.17624059319496155,-0.3503176271915436,0.2248942255973816,0.18086685240268707,2.118260383605957,2.3237133026123047,0.27313122153282166,0.34147581458091736,0.6573022603988647,0.37599292397499084,0.27636975049972534,-0.13101719319820404,-0.5592401623725891,-0.6994264721870422,-0.22331368923187256
116,841.4116586538462,808.3093825120193,894.490001971905,839.7844473031851,842.3570087139423,0.029032389322916668,0.25799560546875,0.9743855794270834,-1.353302001953125,4.204457600911458,5.03936767578125,0.7676427960395813,0.3639454245567322,0.26695773005485535,0.5347493886947632,0.4037705063819885,-0.17664571106433868,-0.19380182027816772,0.24629037082195282,0.17103120684623718,2.055436849594116,2.3992044925689697,0.2900046408176422,0.32090482115745544,0.7275947332382202,0.4313839077949524,0.29535382986068726,-0.13242964446544647,-0.5619125962257385,-0.4922831952571869,-0.2063700258731842
117,841.6040878295898,801.3949966430664,914.1819305419922,840.9661178588867,834.9053726196289,0.029754638671875,0.258270263671875,0.9723714192708334,-1.040771484375,3.934295654296875,5.277130126953125,0.7676427960395813,0.3639454245567322,0.26695773005485535,0.5321377515792847,0.4079793393611908,-0.17664571106433868,-0.09842178970575333,0.27252137660980225,0.15901710093021393,2.055436849594116,2.4381306171417236,0.30483901500701904,0.2912621796131134,0.7275947332382202,0.4882103502750397,0.3029462397098541,-0.12537483870983124,-0.5619125962257385,-0.40258899331092834,-0.17040160298347473
118,832.2217501126803,808.1234154334435,899.2166748046875,833.3995502178485,841.8920828012319,0.025716145833333332,0.2585652669270833,0.9737345377604166,-1.4367930094401042,4.466145833333333,5.236256917317708,0.7676427960395813,0.3639454245567322,0.3181517422199249,0.5341950058937073,0.41742634773254395,-0.17664571106433868,-0.024448508396744728,0.30122309923171997,0.15064169466495514,2.055436849594116,2.4370334148406982,0.3151615858078003,0.2671162784099579,0.7275947332382202,0.5235961079597473,0.3136119246482849,-0.10736308246850967,-0.5619125962257385,-0.34500303864479065,-0.1228095069527626
119,839.578017578125,812.468857421875,879.145791015625,837.7245336914062,843.6234375,0.030802408854166668,0.2589925130208333,0.9691975911458334,-1.5352376302083333,3.8405863444010415,5.4132080078125,0.7676427960395813,0.3639454245567322,0.46016818284988403,0.5416345596313477,0.4228837490081787,-0.17664571106433868,0.01233444083482027,0.3229743540287018,0.14629489183425903,2.055436849594116,2.3804492950439453,0.3155258893966675,0.2551490068435669,0.7275947332382202,0.484514981508255,0.3286451995372772,-0.08576737344264984,-0.5619125962257385,-0.30746912956237793,-0.08222554624080658
120,838.9475919283353,809.5646667480469,858.6136920635516,838.2037165715144,839.2265413724459,0.030069986979166668,0.2592705620659722,0.9708184136284722,-1.0799831814236112,4.790140787760417,5.546959771050347,0.7676427960395813,0.3639454245567322,0.5683802962303162,0.5416345596313477,0.41656070947647095,-0.17664571106433868,0.04276459291577339,0.33067479729652405,0.15347138047218323,2.055436849594116,2.256617784500122,0.3054543733596802,0.2614637017250061,0.7275947332382202,0.4269587993621826,0.3435591161251068,-0.07024038583040237,-0.5619125962257385,-0.26989585161209106,-0.05805102363228798
121,837.5838247445913,801.1031282865084,844.0772071251503,837.9867553710938,848.8348787747897,0.022237141927083332,0.2603556315104167,0.9730224609375,-1.0293070475260417,5.171457926432292,6.896107991536458,0.7716882824897766,0.13595035672187805,0.6040277481079102,0.5416345596313477,0.398741751909256,-0.06018396094441414,0.028252432122826576,0.3242523968219757,0.1738576591014862,1.8073679208755493,2.2442359924316406,0.2976093888282776,0.2855788767337799,1.0155153274536133,0.4451625943183899,0.3571981191635132,-0.0663556382060051,0.0010665329173207283,-0.28729355335235596,-0.047331325709819794
122,844.8520695612981,790.7354172926682,853.3446068396935,841.210200383113,833.5235290527344,0.023508707682291668,0.26116943359375,0.9730631510416666,-1.3495635986328125,4.835001627604167,5.4842376708984375,0.775754988193512,0.1437733769416809,0.6051848530769348,0.5416345596313477,0.3758678734302521,-0.004315182566642761,0.012955871410667896,0.30972257256507874,0.20004057884216309,1.7245928049087524,2.2244958877563477,0.29586726427078247,0.31827303767204285,0.9537639021873474,0.45572635531425476,0.3705967962741852,-0.0737357884645462,0.03620828688144684,-0.3075944781303406,-0.04186718165874481
123,731.3031827486478,796.4229407677284,867.6021376389724,737.8275569035457,843.1008676382212,0.026224772135416668,0.26287841796875,0.9693196614583334,-1.562652587890625,5.094197591145833,5.804494222005208,0.7747350335121155,0.15037398040294647,0.6056345701217651,0.5416345596313477,0.37384867668151855,0.03278337046504021,-0.008637543767690659,0.3123589754104614,0.20450839400291443,1.6538200378417969,2.2001309394836426,0.30331721901893616,0.3410118818283081,0.8882333636283875,0.44543159008026123,0.3971962332725525,-0.07242588698863983,0.055130183696746826,-0.3322419226169586,-0.02295423299074173
124,826.007326566256,798.6080603966346,836.5919987605168,833.2910696176382,840.5903062086838,0.01715087890625,0.2591145833333333,0.972259521484375,-2.107213338216146,5.6238047281901045,5.8256785074869795,0.7743154764175415,0.15037398040294647,0.6081222891807556,0.5416345596313477,0.37603166699409485,0.048393893986940384,-0.028069159016013145,0.32257670164108276,0.20041464269161224,1.6024677753448486,2.175784111022949,0.30267056822776794,0.36298906803131104,0.8293917179107666,0.42735162377357483,0.4214649498462677,-0.0652400404214859,0.05425315350294113,-0.35803133249282837,-0.0017087337328121066
125,916.2482464130109,811.3623516376202,826.9681607759916,907.4767503004807,844.8365713266226,0.015889485677083332,0.2549031575520833,0.9711100260416666,-2.1333821614583335,4.645589192708333,4.717864990234375,0.7734026312828064,0.15037398040294647,0.6368688941001892,0.5416345596313477,0.37910377979278564,0.05119974911212921,-0.03726853057742119,0.33666515350341797,0.18868233263492584,1.5621445178985596,2.1478025913238525,0.2950453460216522,0.37962281703948975,0.785771906375885,0.4282706379890442,0.43889397382736206,-0.05299162119626999,0.044455885887145996,-0.3804681897163391,0.019485371187329292
126,867.199209359976,812.2302058293269,850.0746765136719,861.8216411884015,837.8162794846755,0.021735297309027776,0.2575141059027778,0.9730631510416666,-1.4480082194010417,4.13301255967882,5.534498426649305,0.7724735140800476,0.15037398040294647,0.7226126194000244,0.5416345596313477,0.37781718373298645,0.050977110862731934,-0.02892262302339077,0.34540534019470215,0.1740862876176834,1.5293406248092651,2.118532180786133,0.28636181354522705,0.3828731179237366,0.7586672306060791,0.5059587955474854,0.4432261884212494,-0.03955569863319397,0.03771375119686127,-0.3942984938621521,0.03511979803442955
127,839.4899972768931,813.3615135779747,868.0980553260216,841.3961651141827,846.3243149977463,0.012776692708333334,0.2510986328125,0.9690144856770834,-1.8791707356770833,4.812571207682292,3.955230712890625,0.7698995471000671,0.18598994612693787,0.7719640731811523,0.5415524840354919,0.3674658238887787,0.05328570678830147,-0.011482000350952148,0.3431248068809509,0.16080227494239807,1.502440333366394,2.0952749252319336,0.2720387876033783,0.36535367369651794,0.7422998547554016,0.6418980360031128,0.42604556679725647,-0.030324874445796013,0.03573296591639519,-0.40045446157455444,0.041991494596004486
128,845.5494525615985,812.9120905949519,882.9135014460637,847.1766686072716,842.8064199594351,0.021647135416666668,0.2570597330729167,0.9725850423177084,-0.8835093180338541,4.5546213785807295,3.4816996256510415,0.7157863974571228,0.22180043160915375,0.783594012260437,0.49962857365608215,0.34696531295776367,0.0584489181637764,0.002824337687343359,0.33392927050590515,0.14451779425144196,1.47840416431427,2.0806126594543457,0.2398693710565567,0.3285885453224182,0.7263826131820679,0.7695047855377197,0.38392019271850586,-0.02610185742378235,0.031727761030197144,-0.40434738993644714,0.0443989560008049
129,851.6863896296575,804.4505427433894,882.8980008638822,856.5215594951923,842.9768981933594,0.014628092447916666,0.26123046875,0.9724222819010416,-0.8436330159505209,4.74029541015625,6.280517578125,0.5859008431434631,0.2453497350215912,0.7851442098617554,0.40243345499038696,0.32139962911605835,0.06476587057113647,0.006110799498856068,0.329036682844162,0.127371147274971,1.4549740552902222,2.0717101097106934,0.1856672167778015,0.29001569747924805,0.7053139805793762,0.8511956334114075,0.32658109068870544,-0.021690698340535164,0.02070005051791668,-0.41170617938041687,0.0514058843255043
130,853.034658578726,815.3761714054988,877.2104844313401,850.1831453763522,841.0087327223557,0.0115966796875,0.2608846028645833,0.9700927734375,-0.7975260416666666,4.959615071614583,5.764617919921875,0.5443817973136902,0.25699692964553833,0.7851883769035339,0.3606501817703247,0.2985261380672455,0.07002388685941696,-0.0017997297691181302,0.3351936340332031,0.12472006678581238,1.4308438301086426,2.064363479614258,0.1338227540254593,0.2748575508594513,0.6800515055656433,0.8839470744132996,0.2794337272644043,-0.008921414613723755,0.0036468789912760258,-0.4220777153968811,0.06591242551803589
131,825.3564382699819,803.5981961763822,884.1377868652344,834.2519014798678,845.2085125262921,0.012359619140625,0.2626444498697917,0.9703267415364584,-0.605621337890625,4.448699951171875,5.3695933024088545,0.5364663004875183,0.25699692964553833,0.7851883769035339,0.34383532404899597,0.2785532474517822,0.07678358256816864,-0.02173917181789875,0.3426625728607178,0.1445525586605072,1.4053828716278076,2.027688503265381,0.0989149734377861,0.2914804518222809,0.6570806503295898,0.901852011680603,0.26232942938804626,0.011152953840792179,-0.014164315536618233,-0.4668011963367462,0.07322856038808823
132,835.9875981257512,832.0977736253005,864.8436138446515,838.0177494929387,845.0225431002103,0.017333984375,0.2674458821614583,0.9721577962239584,-0.4137166341145833,3.983891805013021,4.127197265625,0.5328894257545471,0.287626177072525,0.7851883769035339,0.340740829706192,0.24988114833831787,0.09611791372299194,-0.023950200527906418,0.33281150460243225,0.1831645369529724,1.3784266710281372,1.98988938331604,0.07443204522132874,0.3204708993434906,0.6466624736785889,0.9025979042053223,0.2587348520755768,0.027113202959299088,-0.024469798430800438,-0.48989778757095337,0.05014598369598389
133,836.85545701247,841.6596233661359,853.0656573955829,837.8937777005709,849.7337200458234,0.013163248697916666,0.2639363606770833,0.97027587890625,-2.435943603515625,5.199371337890625,5.767608642578125,0.5312124490737915,0.3351965844631195,0.7928923964500427,0.3329445421695709,0.20082779228687286,0.1558053195476532,-0.0021052570082247257,0.29323267936706543,0.23107995092868805,1.268559217453003,1.948369026184082,0.048043567687273026,0.3489625155925751,0.6167502403259277,0.902434766292572,0.23752640187740326,0.025764968246221542,-0.01342632994055748,-0.49790486693382263,-0.01666191592812538
134,839.4813159179688,847.1692236328125,838.1758251953125,841.51208984375,841.6893774414062,0.016815185546875,0.2668863932291667,0.9694417317708334,-1.5227762858072917,3.198827107747396,5.836893717447917,0.5312124490737915,0.454334557056427,0.8072538375854492,0.3329445421695709,0.20082779228687286,0.3312876224517822,0.07096756249666214,0.29323267936706543,0.23107995092868805,1.0837815999984741,1.8483657836914062,0.048043567687273026,0.3489625155925751,0.5826736688613892,0.9182116389274597,0.23752640187740326,0.025764968246221542,0.06113258749246597,-0.4830307066440582,-0.01666191592812538
135,839.6943702697754,852.2229804992676,837.0879096984863,841.3186798095703,844.2147388458252,0.015306260850694444,0.2654351128472222,0.9716864691840278,-1.49322509765625,3.580322265625,6.892547607421875,0.5312124490737915,0.473565936088562,0.7136952877044678,0.3329445421695709,0.20082779228687286,0.4856814444065094,0.10884249210357666,0.29323267936706543,0.23107995092868805,1.2062534093856812,1.7227916717529297,0.048043567687273026,0.3489625155925751,0.6009172797203064,0.9271605610847473,0.23752640187740326,0.025764968246221542,0.1529759019613266,-0.41446635127067566,-0.01666191592812538
136,843.228223717731,856.4373354704484,834.1360128651495,844.0866380774456,838.0251677139946,0.014109293619791666,0.262603759765625,0.9676106770833334,-1.8941243489583333,4.907277425130208,5.198872884114583,0.5068490505218506,0.473565936088562,0.7136952877044678,0.7364192008972168,0.5897966027259827,0.5015388131141663,0.11103624850511551,0.7391077876091003,0.749108076095581,1.2038038969039917,1.6851400136947632,0.4468841254711151,0.703748881816864,0.6049075722694397,0.9264201521873474,0.30295878648757935,0.30385392904281616,0.16509553790092468,-0.3928770124912262,0.22425028681755066
137,842.8981689453125,861.43296875,833.3890063476563,837.1282055664062,846.8952416992188,0.014678955078125,0.2631937662760417,0.9723307291666666,-1.9564310709635417,5.208841959635417,5.0680287679036455,0.6053658127784729,0.473565936088562,0.7141768336296082,0.7364192008972168,0.5827807188034058,0.5078813433647156,0.10936576128005981,0.7128758430480957,0.6762099862098694,1.1865360736846924,1.6534022092819214,0.3687015175819397,0.6802681088447571,0.6008755564689636,0.9206370115280151,0.2826555073261261,0.26206475496292114,0.16885463893413544,-0.3757801651954651,0.17979952692985535
138,839.2575307992788,854.2899357722356,849.2843064528245,835.3987027681791,844.7280930739182,0.016194661458333332,0.2643025716145833,0.97247314453125,-1.8592325846354167,4.528452555338542,6.342824300130208,0.6322551369667053,0.473565936088562,0.7147574424743652,0.7364192008972168,0.5844224691390991,0.5080430507659912,0.09877514839172363,0.6787906885147095,0.6287097334861755,1.1670128107070923,1.6289664506912231,0.33238735795021057,0.658846378326416,0.5850799083709717,0.8926219344139099,0.26201000809669495,0.22023919224739075,0.16372011601924896,-0.3658687174320221,0.14225655794143677
139,837.4133512056791,856.8934959998497,855.6227135291466,837.9867530235878,837.2428847092849,0.0084228515625,0.2602437337239583,0.9690450032552084,-1.3632710774739583,4.6518198649088545,6.1309814453125,0.6398571133613586,0.473565936088562,0.6822311878204346,0.7364192008972168,0.5870197415351868,0.5065716505050659,0.08468082547187805,0.6514042019844055,0.5957643389701843,1.146436095237732,1.5974218845367432,0.3399074375629425,0.6292111873626709,0.5617440938949585,0.8250107169151306,0.23998944461345673,0.18934093415737152,0.1531638354063034,-0.3604172170162201,0.12685570120811462
140,843.0078923152043,853.8095186673678,853.03465623122,841.179208608774,838.6996342585637,0.010843912760416666,0.2659708658854167,0.9735310872395834,-1.173858642578125,4.797617594401042,5.011952718098958,0.6413077116012573,0.4638168215751648,0.5799797177314758,0.7364192008972168,0.5878891348838806,0.5069950819015503,0.07572226971387863,0.6375792622566223,0.5675593018531799,1.1254913806915283,1.54897141456604,0.37021321058273315,0.5910254120826721,0.5424395799636841,0.7102658152580261,0.21450135111808777,0.1721493899822235,0.1436796635389328,-0.35548892617225647,0.13781283795833588
141,764.9478665865385,843.2093552809495,867.850100003756,770.6198965219351,842.9768981933594,0.010369194878472222,0.2624172634548611,0.9698418511284722,-1.0201687282986112,4.353993733723958,4.682142469618055,0.6413077116012573,0.44829893112182617,0.4067116975784302,0.7364192008972168,0.5878891348838806,0.5097458958625793,0.07744657248258591,0.6375792622566223,0.5675593018531799,1.1072750091552734,1.4857664108276367,0.37021321058273315,0.5910254120826721,0.5345286726951599,0.5629326701164246,0.21450135111808777,0.1721493899822235,0.14099228382110596,-0.3461999297142029,0.13781283795833588
142,822.3499591533954,850.3846177321213,852.1823026216947,823.8996934157151,849.3772888183594,0.0155029296875,0.2689005533854167,0.9728597005208334,1.3483174641927083,6.278025309244792,2.1109517415364585,0.6413077116012573,0.4427001476287842,0.43833422660827637,0.7364192008972168,0.5878891348838806,0.5138723254203796,0.08846332132816315,0.6375792622566223,0.5675593018531799,1.0935603380203247,1.4119919538497925,0.37021321058273315,0.5910254120826721,0.5357979536056519,0.4320358335971832,0.21450135111808777,0.1721493899822235,0.1468055695295334,-0.3332665264606476,0.13781283795833588
143,914.8689762995793,842.0935434194712,839.6139784592849,909.6308758075421,847.6570927546575,0.008768717447916666,0.2709248860677083,0.9717203776041666,-2.204411824544271,5.963999430338542,4.42626953125,0.6413077116012573,0.45238742232322693,0.5380231142044067,0.7364192008972168,0.5878891348838806,0.5220546722412109,0.10807248950004578,0.6375792622566223,0.5675593018531799,1.0882484912872314,1.342530369758606,0.37021321058273315,0.5910254120826721,0.5394864082336426,0.3837343156337738,0.21450135111808777,0.1721493899822235,0.16527807712554932,-0.31799909472465515,0.13781283795833588
144,869.8957449106069,851.4384319598859,853.2671203613281,863.3248783991887,834.1124291053185,-0.0003662109375,0.2626139322916667,0.9688924153645834,-2.8137715657552085,4.872385660807292,5.986429850260417,0.6413077116012573,0.48597151041030884,0.6209311485290527,0.7364192008972168,0.5878891348838806,0.5407166481018066,0.13705722987651825,0.6375792622566223,0.5675593018531799,1.092380404472351,1.2994424104690552,0.37021321058273315,0.5910254120826721,0.5385169982910156,0.4319039583206177,0.21450135111808777,0.1721493899822235,0.20000624656677246,-0.29700618982315063,0.13781283795833588
145,847.6984151204427,865.8974304199219,853.6752166748047,839.5054931640625,850.1831487019857,-0.0016072591145833333,0.264251708984375,0.969940185546875,-1.3483174641927083,3.717219034830729,4.94964599609375,0.6413077116012573,0.5379904508590698,0.6642082929611206,0.7364192008972168,0.5878891348838806,0.5677322745323181,0.1675540655851364,0.6375792622566223,0.5675593018531799,1.0944112539291382,1.276637077331543,0.37021321058273315,0.5910254120826721,0.5268609523773193,0.5221917033195496,0.21450135111808777,0.1721493899822235,0.24188102781772614,-0.27031639218330383,0.13781283795833588
146,833.6785043569712,852.9881709172175,857.9318190354568,838.2502112755409,844.1701871431791,0.000701904296875,0.2658589680989583,0.9718119303385416,-1.8704477945963542,4.049936930338542,5.2399953206380205,0.6413077116012573,0.5606464743614197,0.6796642541885376,0.7364192008972168,0.5878891348838806,0.5889002680778503,0.18887236714363098,0.6375792622566223,0.5675593018531799,1.0756727457046509,1.2702466249465942,0.37021321058273315,0.5910254120826721,0.4980383515357971,0.6010704636573792,0.21450135111808777,0.1721493899822235,0.27256903052330017,-0.24697354435920715,0.13781283795833588
147,842.217519906851,853.4995727539062,858.784165602464,837.8162888746995,844.4336453951322,0.0022684733072916665,0.260955810546875,0.9700826009114584,-1.8779246012369792,5.0979359944661455,5.522867838541667,0.6413077116012573,0.5428392887115479,0.6745147705078125,0.7364192008972168,0.5878891348838806,0.5902801752090454,0.19460847973823547,0.6375792622566223,0.5675593018531799,1.0231751203536987,1.2606323957443237,0.37021321058273315,0.5910254120826721,0.4555046558380127,0.6467808485031128,0.21450135111808777,0.1721493899822235,0.2786041498184204,-0.2373809516429901,0.13781283795833588
148,842.7754352276141,851.0045072115385,861.3102252666766,844.0462059607872,844.2166818472056,-8.138020833333333e-05,0.2608235677083333,0.9674072265625,-1.1190287272135417,5.597635904947917,5.542805989583333,0.6289726495742798,0.5259168148040771,0.6587218046188354,0.6571348905563354,0.564144492149353,0.5697420835494995,0.18861599266529083,0.6299797892570496,0.3897125720977783,0.9394226670265198,1.2320773601531982,0.23830020427703857,0.5339748859405518,0.41567155718803406,0.6600427627563477,0.18781833350658417,0.1447821855545044,0.25973308086395264,-0.2445259392261505,0.11165698617696762
149,837.9867553710938,851.3764484112079,863.2163977989784,842.542973445012,851.1129878117488,-0.0016581217447916667,0.2673543294270833,0.973785400390625,-0.9906768798828125,3.8393402099609375,5.6636810302734375,0.6171228885650635,0.516676127910614,0.6424821615219116,0.568354070186615,0.5586827397346497,0.5377232432365417,0.1793939471244812,0.6035640239715576,0.26453471183776855,0.848657488822937,1.1829664707183838,0.1757986843585968,0.4879114031791687,0.39375191926956177,0.6556199789047241,0.15800459682941437,0.09760712087154388,0.2268824428319931,-0.2611149847507477,0.07681150734424591
150,838.9630878155048,851.3764460637019,860.442373422476,840.6677879920372,841.6286268967849,7.120768229166667e-05,0.2639973958333333,0.969879150390625,-1.5975443522135417,4.35150146484375,5.2823638916015625,0.6031942367553711,0.5378737449645996,0.6387341022491455,0.45508795976638794,0.5697903633117676,0.5091205835342407,0.17192292213439941,0.5572887063026428,0.23111885786056519,0.7930301427841187,1.1339120864868164,0.19983960688114166,0.46391239762306213,0.3899672031402588,0.646439790725708,0.13112398982048035,0.036501187831163406,0.19417007267475128,-0.2782905697822571,0.042518582195043564
151,834.9957721416766,851.8103708120493,859.2955744816707,838.7151254507212,837.2738811786359,-0.00164794921875,0.2652791341145833,0.9722493489583334,-1.0891215006510417,4.493560791015625,5.684865315755208,0.5836909413337708,0.5577971935272217,0.6387341022491455,0.30380675196647644,0.5859732627868652,0.4915110170841217,0.16559788584709167,0.5048321485519409,0.24973277747631073,0.7808715105056763,1.1055675745010376,0.2770417034626007,0.43837976455688477,0.39400166273117065,0.6385079622268677,0.10329461097717285,-0.01779814250767231,0.16966748237609863,-0.29217514395713806,0.029785998165607452
152,837.14990234375,852.5542344313401,858.6911832369291,835.3677109938401,842.0625492976262,-0.003662109375,0.266357421875,0.9698689778645834,-1.2847646077473958,5.1427968343098955,5.395762125651042,0.5836909413337708,0.5577971935272217,0.6387341022491455,0.30380675196647644,0.5859732627868652,0.48357534408569336,0.15882492065429688,0.5048321485519409,0.24973277747631073,0.7812868356704712,1.0970807075500488,0.2770417034626007,0.43837976455688477,0.396041601896286,0.6331241130828857,0.10329461097717285,-0.01779814250767231,0.15520234405994415,-0.30476662516593933,0.029785998165607452
153,836.7779587965745,849.950688288762,862.844468336839,836.3750352125901,841.3806715745193,-0.00921630859375,0.2649332682291667,0.9629313151041666,0.3651173909505208,6.7428334554036455,4.221903483072917,0.5836909413337708,0.5577971935272217,0.6387341022491455,0.30380675196647644,0.5859732627868652,0.4809877872467041,0.15154708921909332,0.5048321485519409,0.24973277747631073,0.7730313539505005,1.092316746711731,0.2770417034626007,0.43837976455688477,0.39655545353889465,0.6303344964981079,0.10329461097717285,-0.01779814250767231,0.14804133772850037,-0.3170335292816162,0.029785998165607452
154,837.6458153357872,861.4806964580829,861.4187082143931,840.0169090857872,839.2885343111478,-0.018452962239583332,0.27203369140625,0.9657999674479166,-3.1901041666666665,3.2623799641927085,6.776479085286458,0.5836909413337708,0.5577971935272217,0.6387341022491455,0.30380675196647644,0.5859732627868652,0.4715767204761505,0.1235932931303978,0.5048321485519409,0.24973277747631073,0.7443334460258484,1.0648666620254517,0.2770417034626007,0.43837976455688477,0.38783857226371765,0.6260904669761658,0.10329461097717285,-0.01779814250767231,0.13833613693714142,-0.34105804562568665,0.029785998165607452
155,836.5157495117187,857.065205078125,857.5487231445312,837.402197265625,842.060068359375,-0.013783772786458334,0.271087646484375,0.9687703450520834,-2.6879119873046875,3.90289306640625,4.827524820963542,0.16344399750232697,0.5577971935272217,0.6387341022491455,-0.028098465874791145,0.18181636929512024,0.4633462131023407,0.10281500220298767,0.03549545258283615,-0.037886619567871094,0.7343910336494446,1.0306813716888428,0.37717559933662415,0.04268430545926094,0.3757980167865753,0.6216874718666077,-0.17504356801509857,-0.1446278840303421,0.13192133605480194,-0.3515055179595947,-0.11189005523920059
156,836.4667332967123,851.8788146972656,855.4716084798177,834.9389444986979,840.5464045206705,-0.011555989583333334,0.2657267252604167,0.968505859375,-2.4822998046875,4.047444661458333,4.6954345703125,0.16681528091430664,0.5577971935272217,0.6387341022491455,-0.007443675771355629,0.1904928982257843,0.45577698945999146,0.08234620094299316,0.07021071761846542,-0.07052931934595108,0.7329527735710144,0.9881963133811951,0.5062403082847595,0.03545624017715454,0.36170125007629395,0.614179790019989,-0.058029137551784515,-0.1502288430929184,0.12449510395526886,-0.36291900277137756,-0.15097825229167938
157,839.8197778320313,858.7252709960937,851.1340673828125,837.1926733398437,840.8673950195313,-0.017618815104166668,0.2651265462239583,0.9632161458333334,-1.21124267578125,6.631927490234375,4.344024658203125,0.16801662743091583,0.5606470704078674,0.6387341022491455,0.029731731861829758,0.19782981276512146,0.4443974196910858,0.055666759610176086,0.09561493992805481,-0.07759516686201096,0.7362507581710815,0.9427185654640198,0.6045380234718323,0.02510252594947815,0.3441542685031891,0.5935313701629639,0.04724923521280289,-0.14781008660793304,0.10860385000705719,-0.3798389732837677,-0.1700766384601593
158,837.800790640024,858.8616544283353,858.7686650202825,841.3341815655048,838.7926189716046,-0.017751057942708332,0.2687784830729167,0.96722412109375,-1.5875752766927083,2.7913411458333335,4.969584147135417,0.1729670614004135,0.5498149991035461,0.5794689655303955,0.10744170844554901,0.23446600139141083,0.3504182696342468,-0.08346226811408997,0.11323349177837372,-0.07964836806058884,0.7267714738845825,0.8070201873779297,0.6657596230506897,-0.010093784891068935,0.25042158365249634,0.42332911491394043,0.12568867206573486,-0.12903478741645813,-0.008327721618115902,-0.4605911374092102,-0.15460960566997528
159,837.1047058105469,857.0833384195963,858.3424962361654,838.9346822102865,846.8086115519205,-0.017852783203125,0.26953125,0.9700113932291666,-1.5987904866536458,4.0972900390625,5.971476236979167,0.19721443951129913,0.4878089129924774,0.407751202583313,0.1734745353460312,0.2501126527786255,0.254442423582077,-0.20394930243492126,0.11742643266916275,-0.07888849824666977,0.7010183930397034,0.6980281472206116,0.6494988799095154,-0.036557018756866455,0.15433500707149506,0.23130613565444946,0.11523798853158951,-0.12616080045700073,-0.11545498669147491,-0.5219051241874695,-0.1397526115179062
160,840.1873732346755,859.3885615422175,857.0019695575421,838.157224214994,842.3105093149038,-0.018086751302083332,0.2703653971354167,0.9691569010416666,-1.6249593098958333,4.17205810546875,5.520375569661458,0.24723809957504272,0.41495728492736816,0.12016163766384125,0.22661535441875458,0.25420233607292175,0.15134577453136444,-0.32247820496559143,0.11845549941062927,-0.07950210571289062,0.6551190614700317,0.5684624314308167,0.6229343414306641,-0.05825343355536461,0.0442393459379673,-0.0374164953827858,0.09530762583017349,-0.12960819900035858,-0.2186058610677719,-0.5761939883232117,-0.1338823139667511
161,841.990230984158,860.3235677083334,857.682132297092,843.2885572645399,834.715101453993,-0.02044677734375,0.26751708984375,0.968780517578125,-1.7695109049479167,4.700419108072917,5.186411539713542,0.2604576051235199,0.34805092215538025,-0.1583089381456375,0.24976392090320587,0.2489883452653885,0.07847366482019424,-0.39446938037872314,0.1121739074587822,-0.08748115599155426,0.5776849985122681,0.4510718882083893,0.594015896320343,-0.06724365800619125,-0.046622298657894135,-0.33446061611175537,0.07272419333457947,-0.13552697002887726,-0.2760106027126312,-0.6093385815620422,-0.1416780948638916
162,838.0241328220742,875.0226177140778,861.5837115119485,837.4947892731311,839.2408255782782,-0.017054239908854168,0.2679850260416667,0.9697062174479166,-1.6361745198567708,3.8623936971028647,5.0543212890625,0.26219552755355835,0.2999502569437027,-0.21512741595506668,0.25064024329185486,0.2482077032327652,0.0413677878677845,-0.41348226368427277,0.08951824903488159,-0.10597121715545654,0.41294291615486145,0.37135519087314606,0.5510304570198059,-0.06786071881651878,-0.14276733249425888,-0.5779538452625275,0.03782031871378422,-0.13360360264778137,-0.2869497388601303,-0.6312862932682037,-0.17325817793607712
163,838.7306236853966,882.6655343862681,860.2099210298978,840.0478985126202,843.2093576284556,-0.015970865885416668,0.26580810546875,0.9701944986979166,-1.7832183837890625,4.0636444091796875,5.061798095703125,0.2826959788799286,0.2731441855430603,-0.17740923166275024,0.25064024329185486,0.27872857451438904,0.027748005464673042,-0.39405152201652527,0.065159372985363,-0.11125544458627701,0.3389374017715454,0.3451441824436188,0.5115445852279663,-0.07048209011554718,-0.23278480768203735,-0.6153148412704468,0.009874396026134491,-0.11348126083612442,-0.28734245896339417,-0.6467850208282471,-0.2084292322397232
164,837.8162865271935,865.3085327148438,857.6838543231671,835.8016333946815,838.9320913461538,-0.017466227213541668,0.2652180989583333,0.9696146647135416,-1.6087595621744792,4.1359202067057295,5.0580596923828125,0.3030431270599365,0.23382556438446045,-0.19170445203781128,0.2546655237674713,0.3133023977279663,0.021057045087218285,-0.36763209104537964,0.05339796468615532,-0.11036228388547897,0.4358193278312683,0.3349168598651886,0.49050164222717285,-0.06865637004375458,-0.2712474465370178,-0.6172604560852051,-0.00045035179937258363,-0.0963570848107338,-0.2906855046749115,-0.6492655873298645,-0.22598713636398315
165,842.155531663161,857.7768272986779,859.6985051081731,843.1008770282452,845.7354219876803,-0.016072591145833332,0.2675374348958333,0.9697265625,-1.6349283854166667,4.608205159505208,5.00946044921875,0.31644633412361145,0.2019813358783722,-0.21646948158740997,0.2863725423812866,0.3515956699848175,0.017863739281892776,-0.3356912434101105,0.044387321919202805,-0.1470853090286255,0.5928986668586731,0.336679071187973,0.48776549100875854,-0.06396730989217758,-0.2814444303512573,-0.624772846698761,0.005708846263587475,-0.08249057084321976,-0.29316049814224243,-0.638761579990387,-0.26124683022499084
166,839.2667157208479,845.3927578396267,855.5704797815393,840.4904321741175,849.2131325050636,-0.02056329900568182,0.26472056995738635,0.9705477627840909,-2.0536295572916665,4.854939778645833,5.679257710774739,0.3440547585487366,0.1180836632847786,-0.21259550750255585,0.34661149978637695,0.36961729824543,0.02028007246553898,-0.2812725603580475,0.024478713516145945,-0.16524548828601837,1.013696551322937,0.3519968092441559,0.4447653293609619,-0.03115685097873211,-0.24350018799304962,-0.626811146736145,0.0603756420314312,-0.07428437968095143,-0.2936282952626546,-0.5927503108978271,-0.2925790150960286
167,839.8929279033954,843.9067312387319,854.1814645620493,837.9867600661057,839.2575354942909,-0.01727294921875,0.2653096516927083,0.9708048502604166,-1.1900583902994792,4.2879486083984375,4.692942301432292,0.3366416096687317,0.1180836632847786,-0.2070523053407669,0.36185935139656067,0.359319806098938,0.01208800170570612,-0.2523611783981323,-0.015256526879966259,-0.1579994559288025,1.0826342105865479,0.3455759882926941,0.3864525854587555,-0.022532915696501732,-0.20032094419002533,-0.5900528430938721,0.05714336037635803,-0.0719745084643364,-0.3066997826099396,-0.5582947134971619,-0.299386590719223
168,838.8391042856069,849.4392723670372,849.7802170973557,843.3798241248497,854.8168499286359,-0.026774088541666668,0.2606201171875,0.9628702799479166,-0.674407958984375,4.1571044921875,5.223297119140625,0.3217441737651825,0.08181102573871613,-0.21623662114143372,0.4303240478038788,0.3511234521865845,-0.030504638329148293,-0.2678227424621582,-0.0499824583530426,-0.1716102808713913,1.1413575410842896,0.29377323389053345,0.18778562545776367,0.00296097993850708,-0.13652922213077545,-0.4986020624637604,0.01030497346073389,-0.08589492738246918,-0.36669403314590454,-0.5348679423332214,-0.34437355399131775
169,842.7369970703126,852.6974365234375,844.8805834960938,842.8498217773438,843.5267358398437,-0.019510904947916668,0.27056884765625,0.9710286458333334,-1.27105712890625,3.1003824869791665,6.240641276041667,0.3185049891471863,0.0071519967168569565,-0.21623662114143372,0.5003702044487,0.34497275948524475,-0.06051357835531235,-0.2765485644340515,-0.0481480211019516,-0.18961086869239807,1.1483196020126343,0.2516102194786072,0.09604615718126297,0.03138624504208565,-0.13214242458343506,-0.471983402967453,0.00046273512998595834,-0.09463083744049072,-0.4060065746307373,-0.5245347619056702,-0.38641658425331116
170,835.8946110652043,844.2166771521935,845.3324890136719,836.8399540827825,839.8309443547175,-0.024770100911458332,0.2599894205729167,0.970611572265625,-1.951446533203125,3.9577229817708335,4.573313395182292,0.26959162950515747,-0.12797121703624725,-0.1107020452618599,0.5149057507514954,0.3324504792690277,-0.1381610482931137,-0.2830677330493927,-0.032604705542325974,-0.2629872262477875,1.14898681640625,0.11551510542631149,0.04081248864531517,0.10939665883779526,-0.1911112368106842,-0.5196253061294556,0.04157419130206108,-0.08105649054050446,-0.5012118220329285,-0.5086777806282043,-0.4851980209350586
171,834.8717956542969,842.1710322453425,837.8162888746995,834.7943115234375,842.511974628155,-0.012919108072916666,0.2640584309895833,0.9696451822916666,-0.6754048665364584,3.2349650065104165,4.094797770182292,0.2969852685928345,-0.16153019666671753,-0.06971511244773865,0.5033286213874817,0.3316674828529358,-0.1530510038137436,-0.28317564725875854,-0.020018408074975014,-0.25974658131599426,1.1529242992401123,0.09151668846607208,0.05504016578197479,0.11059320718050003,-0.2216692417860031,-0.545798659324646,0.05164617300033569,-0.07574615627527237,-0.5172013640403748,-0.5017946362495422,-0.47419601678848267
172,834.2519061748798,846.0918555626503,838.0642395019531,835.8946157602163,842.4034893329327,-0.021586100260416668,0.265716552734375,0.9710286458333334,-1.2573496500651042,4.443715413411458,5.884246826171875,0.3549569547176361,-0.16991731524467468,-0.04601752385497093,0.4892248511314392,0.3219839632511139,-0.1656697541475296,-0.2614147663116455,-0.0028061813209205866,-0.2312326729297638,1.156951904296875,0.07875855267047882,0.06858304888010025,0.112580806016922,-0.24823693931102753,-0.5518144965171814,0.05562206357717514,-0.07827328145503998,-0.518451988697052,-0.48865771293640137,-0.44813165068626404
173,843.6277817946213,846.7117544320913,834.2209073580228,842.8219205416166,841.3186833308293,-0.021931966145833332,0.2667439778645833,0.969757080078125,-1.6187286376953125,4.311625162760417,5.0331370035807295,0.41808730363845825,-0.16991731524467468,0.026917703449726105,0.4891308844089508,0.2951592206954956,-0.17536678910255432,-0.20375926792621613,0.015202520415186882,-0.18866363167762756,1.1547530889511108,0.07584130764007568,0.08340022712945938,0.12346190959215164,-0.2676076591014862,-0.5289955139160156,0.05220771208405495,-0.08706676959991455,-0.512294590473175,-0.4631831645965576,-0.41784918308258057
174,837.3203758826622,848.9588599571815,835.5691716120793,839.0870619553787,848.6334111140325,-0.0233154296875,0.2635091145833333,0.96978759765625,-1.8343098958333333,4.673004150390625,5.443115234375,0.46659576892852783,-0.16991731524467468,0.08111736923456192,0.4891308844089508,0.250363290309906,-0.1806791126728058,-0.1251501888036728,0.03218965232372284,-0.11888188868761063,1.1399458646774292,0.08265025168657303,0.10087093710899353,0.14030437171459198,-0.2865450382232666,-0.4811614453792572,0.04186297580599785,-0.09433285892009735,-0.5106312036514282,-0.428359717130661,-0.38537755608558655
175,843.68791015625,850.63443359375,837.6600708007812,840.09376953125,839.1750854492187,-0.026699490017361112,0.2649197048611111,0.9690619574652778,-1.2876722547743056,4.897308349609375,5.893385145399305,0.4940972328186035,-0.1611824780702591,0.11750763654708862,0.4891308844089508,0.19884535670280457,-0.1842702180147171,-0.05662495270371437,0.0473206527531147,-0.02549952268600464,1.106050729751587,0.09563832730054855,0.12083414196968079,0.15778686106204987,-0.3050781786441803,-0.42580726742744446,0.02607186883687973,-0.09503701329231262,-0.5170743465423584,-0.3992839753627777,-0.3506143391132355
176,840.0192260742188,848.7225280761719,842.5879104614257,840.3818649291992,837.6016448974609,-0.0255615234375,0.26435546875,0.97001953125,-1.854248046875,3.6661275227864585,5.732218424479167,0.4957733303308487,-0.13672631978988647,0.15045637637376785,0.4868577867746353,0.15427785366773605,-0.19178456813097,-0.008485692902468145,0.06548142060637474,0.13882237672805786,0.9459397196769714,0.1285456120967865,0.15674671530723572,0.18614664673805237,-0.31842532753944397,-0.35833048820495605,-0.017624175176024437,-0.07907020300626755,-0.52739018201828,-0.3989541232585907,-0.2911528944969177
177,837.9273554484049,850.0320460001627,844.3574422200521,836.768928527832,834.5360209147135,-0.0185546875,0.265625,0.9713338216145834,-1.5576680501302083,3.8106791178385415,4.85992431640625,0.5280832052230835,-0.06790583580732346,0.16363084316253662,0.4574750065803528,0.15684522688388824,-0.19617395102977753,0.004371849820017815,0.08186594396829605,0.17998100817203522,0.8186089396476746,0.15047308802604675,0.16416923701763153,0.1980549842119217,-0.3263120949268341,-0.3452974557876587,-0.04215889424085617,-0.06340739876031876,-0.5197086334228516,-0.4179725646972656,-0.26659393310546875
178,838.4826730581431,849.7337247408353,847.0062021108774,842.0315575232872,841.4426621657151,-0.023701985677083332,0.2628275553385417,0.9713134765625,-1.6461435953776042,4.1558583577473955,5.0431060791015625,0.5737442970275879,-0.01985328644514084,0.17304252088069916,0.42586827278137207,0.17480091750621796,-0.18856501579284668,0.013338863849639893,0.09268609434366226,0.19899089634418488,0.6761772036552429,0.17830443382263184,0.16077561676502228,0.2101917564868927,-0.354388952255249,-0.327529639005661,-0.055792149156332016,-0.043129026889801025,-0.5027871131896973,-0.4323156177997589,-0.23724675178527832
179,846.3150170898438,853.9545825195313,846.121611328125,844.928935546875,840.22271484375,-0.032124837239583336,0.2619222005208333,0.9690755208333334,-2.071075439453125,4.049936930338542,3.7658182779947915,0.5886309742927551,-0.009914042428135872,0.19728843867778778,0.41584092378616333,0.1925356239080429,-0.17104890942573547,0.027807191014289856,0.0983135998249054,0.20394070446491241,0.5353363156318665,0.2017645239830017,0.1506936252117157,0.22408583760261536,-0.3884783089160919,-0.30077874660491943,-0.05077463388442993,-0.022921578958630562,-0.4741074740886688,-0.43501046299934387,-0.20285958051681519
180,844.6661024827224,856.5990389310397,836.111574613131,843.2868464543269,839.8309373121995,-0.018703884548611112,0.2625528971354167,0.9703504774305556,-1.9223700629340277,3.6760965983072915,4.569159613715278,0.5894523859024048,-0.009914042428135872,0.20772694051265717,0.41883307695388794,0.20460273325443268,-0.14958518743515015,0.04205656424164772,0.09345869719982147,0.20929326117038727,0.41228407621383667,0.22328953444957733,0.14378714561462402,0.23660814762115479,-0.40564993023872375,-0.2741304337978363,-0.029464775696396828,-0.007666559424251318,-0.4309169352054596,-0.42742955684661865,-0.16880936920642853
181,843.6897700383113,859.2490821251503,837.9712618314303,839.7844473031851,840.4508314866287,-0.025594075520833332,0.2597452799479167,0.9720458984375,-1.592559814453125,5.610097249348958,5.231272379557292,0.5894523859024048,0.0018020330462604761,0.21185703575611115,0.42013269662857056,0.2099362462759018,-0.1319892406463623,0.05100920423865318,0.07792218774557114,0.22906500101089478,0.3391612470149994,0.24610458314418793,0.1452464759349823,0.24149098992347717,-0.40234267711639404,-0.2500990927219391,-0.006878955755382776,5.5056996643543243e-05,-0.37800586223602295,-0.41449761390686035,-0.13891446590423584
182,840.4508338341346,857.9473125751202,835.786137507512,840.6522944523738,844.2941659780649,-0.028879801432291668,0.260833740234375,0.9701131184895834,-0.9869384765625,4.4561767578125,5.5839284261067705,0.5894523859024048,0.025464605540037155,0.21185703575611115,0.3521314561367035,0.20924192667007446,-0.12272898852825165,0.0547218956053257,0.05668149143457413,0.2612711191177368,0.31402453780174255,0.27028247714042664,0.1516539305448532,0.23598571121692657,-0.3859984576702118,-0.22116386890411377,0.003337613306939602,-0.0009793241042643785,-0.32777491211891174,-0.4003010094165802,-0.11327508091926575
183,836.173569899339,850.8030372032753,835.0732586200421,838.482675405649,845.0225501427284,-0.026346842447916668,0.2603251139322917,0.970611572265625,-1.8629709879557292,3.567682902018229,5.273640950520833,0.6033729910850525,0.060867466032505035,0.21185703575611115,0.24757716059684753,0.2037827968597412,-0.11969916522502899,0.056030385196208954,0.035400837659835815,0.30020901560783386,0.31065601110458374,0.29153046011924744,0.1598300188779831,0.22735609114170074,-0.3664519786834717,-0.1824386864900589,0.0011828913120552897,-0.009403136558830738,-0.29073309898376465,-0.38699033856391907,-0.09313517808914185
184,845.595949613131,850.0901630108173,835.6156663161057,842.3724975585938,843.1783564640925,-0.014607747395833334,0.2641398111979167,0.9755452473958334,-1.1040751139322917,3.84307861328125,4.558359781901042,0.6655099391937256,0.08935365825891495,0.21185703575611115,0.25281840562820435,0.19643259048461914,-0.1164097934961319,0.05650085583329201,0.016410404816269875,0.33124926686286926,0.315225750207901,0.3044250011444092,0.1633407175540924,0.227077916264534,-0.3340478241443634,-0.14009492099285126,-0.0044614155776798725,-0.022154953330755234,-0.27016302943229675,-0.3742830455303192,-0.07984175533056259
185,839.2420349121094,851.8878643329327,839.9859126164363,841.0397338867188,844.3561636117788,-0.023193359375,0.2603759765625,0.9686991373697916,-1.4405314127604167,4.3801625569661455,6.2543487548828125,0.7603209614753723,0.10030437260866165,0.21185703575611115,0.28067076206207275,0.1917390674352646,-0.10677441209554672,0.0542403869330883,-0.00019508092373143882,0.35173970460891724,0.31682372093200684,0.3100036382675171,0.15945222973823547,0.23747803270816803,-0.29081401228904724,-0.10998022556304932,-0.005225121509283781,-0.03318564221262932,-0.26192936301231384,-0.3611166477203369,-0.07231558859348297
186,836.6539916992188,845.4254737267128,840.6987844613882,835.5381751427284,842.5584716796875,-0.026031494140625,0.2621663411458333,0.9708964029947916,-1.2623341878255208,4.3053944905598955,5.4069773356119795,0.7982386350631714,0.12078887969255447,0.21185703575611115,0.28878122568130493,0.19266723096370697,-0.09142038226127625,0.04051870480179787,-0.013359913602471352,0.3624885678291321,0.31880372762680054,0.3150815963745117,0.1516256481409073,0.25166836380958557,-0.24779175221920013,-0.09925894439220428,-0.0007602153928019106,-0.039038654416799545,-0.2567291259765625,-0.35107892751693726,-0.06739279627799988
187,835.21025390625,844.751650390625,842.1245434570312,837.35384765625,839.0622680664062,-0.025970458984375,0.263092041015625,0.9703267415364584,-1.5078226725260417,4.4748687744140625,5.223795572916667,0.7963589429855347,0.1228664219379425,0.20805902779102325,0.28934139013290405,0.19794519245624542,-0.07524121552705765,0.003382371738553047,-0.0226126816123724,0.3684740960597992,0.3138118386268616,0.3242930769920349,0.14230278134346008,0.2606653571128845,-0.2117242068052292,-0.10763135552406311,0.004700888879597187,-0.04250197485089302,-0.2467370331287384,-0.35230666399002075,-0.06476004421710968
188,833.8024738018329,841.1172203650841,842.3260028545673,831.6328547551082,837.2738835261418,-0.029439290364583332,0.2620442708333333,0.9712727864583334,-1.5227762858072917,4.613189697265625,5.281117757161458,0.7863423824310303,0.1228664219379425,0.17789298295974731,0.28934139013290405,0.20492735505104065,-0.0627063438296318,-0.06343289464712143,-0.029553880915045738,0.36798110604286194,0.2977102994918823,0.32988595962524414,0.132411390542984,0.2593260109424591,-0.17999811470508575,-0.1289753019809723,0.008727123029530048,-0.04740949720144272,-0.22984547913074493,-0.36998265981674194,-0.06810146570205688
189,840.4508291391226,852.1048161433293,846.8357309194712,837.3358647273137,835.7396381084735,-0.02593994140625,0.2630208333333333,0.9690144856770834,-1.3794708251953125,4.104766845703125,5.4568227132161455,0.7863423824310303,0.1228664219379425,0.12048161029815674,0.28934139013290405,0.21296656131744385,-0.054948948323726654,-0.14943411946296692,-0.03627314791083336,0.3584432899951935,0.2799938917160034,0.32850533723831177,0.12513582408428192,0.24729572236537933,-0.15045247972011566,-0.15489040315151215,0.012496630661189556,-0.05183874070644379,-0.21062855422496796,-0.3984186351299286,-0.0788506492972374
190,834.778810941256,847.9205439640925,846.5102844238281,835.6001704289363,843.7052659254807,-0.026204427083333332,0.2649739583333333,0.971435546875,-1.6648356119791667,4.05242919921875,5.505421956380208,0.7863423824310303,0.1228664219379425,0.05107966065406799,0.28934139013290405,0.22229084372520447,-0.05177130922675133,-0.22418978810310364,-0.04294009506702423,0.33900099992752075,0.2803664803504944,0.3190106153488159,0.1188654825091362,0.22817130386829376,-0.12258916348218918,-0.17605772614479065,0.018994266167283058,-0.052881691604852676,-0.1958215832710266,-0.4245303273200989,-0.09298750013113022
191,832.5162048339844,847.3316509540265,849.4237811748798,834.1589167668269,842.7289452185997,-0.026194254557291668,0.2601114908854167,0.9707743326822916,-2.0149993896484375,3.535283406575521,4.8512013753255205,0.7863423824310303,0.1228664219379425,0.018975548446178436,0.2902907729148865,0.23270487785339355,-0.05369869992136955,-0.261493057012558,-0.04890463128685951,0.3154161274433136,0.2982063591480255,0.30301326513290405,0.11346166580915451,0.20822423696517944,-0.09712924063205719,-0.18659920990467072,0.028360484167933464,-0.05306994542479515,-0.18880899250507355,-0.43925830721855164,-0.10402673482894897
192,838.8546072152944,850.5085918719952,850.5550795335037,839.1490525465745,833.8179790790265,-0.020212809244791668,0.2615763346354167,0.972900390625,-1.6959889729817708,4.206949869791667,5.4966990152994795,0.7863423824310303,0.1228664219379425,0.007998394779860973,0.31573498249053955,0.24432584643363953,-0.06125559285283089,-0.27031078934669495,-0.05397950857877731,0.2996988594532013,0.3219767212867737,0.28518298268318176,0.1100161224603653,0.19552113115787506,-0.07448796182870865,-0.19291819632053375,0.03663049638271332,-0.05768273398280144,-0.18912392854690552,-0.44529443979263306,-0.11149858683347702
193,839.1180584247296,849.4702782264122,850.3846153846154,840.3733403132512,847.3316415640024,-0.021993001302083332,0.2603759765625,0.970916748046875,-1.5713755289713542,3.5539754231770835,5.3097788492838545,0.7845561504364014,0.1096586063504219,-0.022882170975208282,0.35528433322906494,0.2569642663002014,-0.07439618557691574,-0.2773359715938568,-0.059934768825769424,0.2988899350166321,0.3440086543560028,0.26626259088516235,0.11376465111970901,0.1893056184053421,-0.05754885450005531,-0.2039424031972885,0.03620043024420738,-0.06630691140890121,-0.1953134834766388,-0.4520186185836792,-0.1208178773522377
194,835.5381774902344,851.8258643517128,852.4922508826622,841.4891568697416,841.6906174879807,-0.025044759114583332,0.2596638997395833,0.97076416015625,-1.45050048828125,4.034983317057292,5.802001953125,0.7742515206336975,0.09057911485433578,-0.09767575562000275,0.37592950463294983,0.26868388056755066,-0.09169602394104004,-0.29258203506469727,-0.0666741356253624,0.31140002608299255,0.35940754413604736,0.2503822445869446,0.12403468042612076,0.17927345633506775,-0.05079576000571251,-0.22084714472293854,0.019655531272292137,-0.07185414433479309,-0.2066933512687683,-0.4655870497226715,-0.13540345430374146
195,836.9174452561599,850.989011324369,851.1749807504507,834.1899132361779,848.7264005220853,-0.017862955729166668,0.26263427734375,0.97125244140625,-1.62994384765625,3.8580322265625,4.902292887369792,0.7526719570159912,0.08004627376794815,-0.18330352008342743,0.3812384307384491,0.2759959399700165,-0.10956628620624542,-0.311464786529541,-0.07289870083332062,0.3272862434387207,0.3638916611671448,0.23432853817939758,0.13673172891139984,0.16037562489509583,-0.05186018347740173,-0.2385258823633194,-0.011238508857786655,-0.06904223561286926,-0.22322286665439606,-0.4876426160335541,-0.15232259035110474
196,839.5829772949219,850.4775954026443,852.7867032564603,842.9613976111779,835.0577603853666,-0.0235595703125,0.2591552734375,0.9709981282552084,-1.88714599609375,4.66253662109375,5.321990966796875,0.7505502104759216,0.0788373202085495,-0.24220505356788635,0.38025927543640137,0.2779771685600281,-0.12294359505176544,-0.3254287540912628,-0.07515615969896317,0.3331681191921234,0.35869958996772766,0.21414121985435486,0.1464138627052307,0.1370375156402588,-0.055083468556404114,-0.2558630108833313,-0.04275377094745636,-0.05954995006322861,-0.24241067469120026,-0.5144549012184143,-0.1649172008037567
197,840.0788996769832,845.8129037710337,852.0893179086538,841.0242262620193,845.4719590407151,-0.0208740234375,0.25885009765625,0.9739990234375,-1.9688924153645833,4.353993733723958,5.146535237630208,0.7505502104759216,0.08138201385736465,-0.2824275493621826,0.37244635820388794,0.27791133522987366,-0.12779897451400757,-0.3338698744773865,-0.07079032063484192,0.32459524273872375,0.34758347272872925,0.18050633370876312,0.14582470059394836,0.11820632219314575,-0.05545129254460335,-0.2811277508735657,-0.055560290813446045,-0.045781150460243225,-0.2576877474784851,-0.5392788052558899,-0.1711404025554657
198,841.2411898099459,852.0118290827825,852.1203167255109,838.157228910006,844.3716454139122,-0.024671766493055556,0.25830078125,0.9702962239583334,-1.1771816677517362,4.334055582682292,4.976230197482639,0.7505502104759216,0.09741471707820892,-0.3207303285598755,0.3790684640407562,0.27991533279418945,-0.12631945312023163,-0.34165313839912415,-0.060792386531829834,0.301858514547348,0.32995158433914185,0.12457239627838135,0.1342037320137024,0.10347074270248413,-0.05850660055875778,-0.32560884952545166,-0.04220489785075188,-0.025732707232236862,-0.2654499113559723,-0.5583266019821167,-0.17356565594673157
