No,RAW_TP9,RAW_AF7,RAW_AF8,RAW_TP10,REF,Accelerometer_X,Accelerometer_Y,Accelerometer_Z,Gyro_X,Gyro_Y,Gyro_Z,Alpha_TP9,Alpha_AF7,Alpha_AF8,Alpha_TP10,Beta_TP9,Beta_AF7,Beta_AF8,Beta_TP10,Delta_TP9,Delta_AF7,Delta_AF8,Delta_TP10,Theta_TP9,Theta_AF7,Theta_AF8,Theta_TP10,Gamma_TP9,Gamma_AF7,Gamma_AF8,Gamma_TP10
1,841.0552250788762,856.2890883225662,855.2662752591647,838.3431983360878,852.0583261343149,0.16913859049479166,-0.3356831868489583,0.9181111653645834,0.6828816731770834,5.4618072509765625,6.285502115885417,0.9495284557342529,0.5512261986732483,0.44635769724845886,0.6989220380783081,0.9712385535240173,0.5354011058807373,-0.11883363872766495,0.640664279460907,1.0009106397628784,1.5628936290740967,1.2863541841506958,1.4793667793273926,1.172165870666504,0.7112438678741455,0.4858987629413605,0.7978776693344116,0.5695580244064331,0.1247529610991478,-0.27861252427101135,0.47331419587135315
2,843.1628652719351,856.9244901216947,858.1332773061899,842.9149076021635,854.4139146071213,0.150146484375,-0.338134765625,0.9194742838541666,1.308441162109375,6.076151529947917,8.25439453125,0.9525501132011414,0.44709497690200806,0.44635769724845886,0.6989220380783081,0.9406458735466003,0.5423505902290344,-0.12475235015153885,0.640664279460907,0.9608174562454224,1.4213231801986694,1.266088604927063,1.4793667793273926,1.1020861864089966,0.5128940343856812,0.46429452300071716,0.7978776693344116,0.5321387648582458,0.1244310736656189,-0.280962198972702,0.47331419587135315
3,833.9419508713943,851.3299513596755,855.9326547475962,835.104252741887,842.9613976111779,0.15223185221354166,-0.3283182779947917,0.9252827962239584,3.251164754231771,6.253102620442708,7.718556722005208,0.9525501132011414,0.33226025104522705,0.44635769724845886,0.6989220380783081,0.9047742486000061,0.550469696521759,-0.13775864243507385,0.640664279460907,0.9300110936164856,1.2690585851669312,1.2527375221252441,1.4793667793273926,1.0437638759613037,0.30445748567581177,0.4500190019607544,0.7978776693344116,0.5011923313140869,0.13030491769313812,-0.28939148783683777,0.47331419587135315
4,843.4783935546875,843.9457836914063,856.662265625,843.89744140625,847.8945043945313,0.14239501953125,-0.31268310546875,0.92852783203125,2.5171915690104165,5.946553548177083,9.767201741536459,0.9533389806747437,0.26965412497520447,0.44635769724845886,0.8654224276542664,0.8708608746528625,0.5023301839828491,-0.16101379692554474,0.5490875840187073,0.8983060717582703,1.096453309059143,1.2422714233398438,1.3697974681854248,0.9959873557090759,0.18637529015541077,0.4429151117801666,0.6873793601989746,0.47541096806526184,0.12267279624938965,-0.30605119466781616,0.16341763734817505
5,835.2127309945913,847.7190833458534,857.6373572716346,837.5838200495793,849.9042029747596,0.13641357421875,-0.3077596028645833,0.932647705078125,0.7314809163411459,5.802001953125,8.38897705078125,0.9533389806747437,0.24901454150676727,0.444623738527298,0.8754580616950989,0.8434906601905823,0.4241093695163727,-0.19138959050178528,0.5393487811088562,0.8643377423286438,0.9991976022720337,1.232616662979126,1.2811254262924194,0.9569011926651001,0.15272724628448486,0.43661558628082275,0.6473792195320129,0.4561430811882019,0.12439481914043427,-0.3302241265773773,0.1146220937371254
6,840.72234375,852.1010986328125,859.2087939453126,839.8842529296875,849.0227075195312,0.142547607421875,-0.3035481770833333,0.9396158854166666,-1.607513427734375,3.9066314697265625,7.808278401692708,0.9554122090339661,0.24561063945293427,0.4438581168651581,0.8830804228782654,0.8231596350669861,0.3383297622203827,-0.22156605124473572,0.5301586389541626,0.8315595984458923,0.9785864353179932,1.225924015045166,1.2061316967010498,0.9256012439727783,0.1366897076368332,0.4292328953742981,0.616155207157135,0.44769522547721863,0.12743251025676727,-0.3565862476825714,0.10064840316772461
7,848.3780224609375,859.67619140625,861.1912109375,842.1245361328125,858.4351635742188,0.130828857421875,-0.313446044921875,0.9261881510416666,-2.3302714029947915,5.438130696614583,7.003275553385417,0.9565210938453674,0.2312152236700058,0.44344931840896606,0.8869734406471252,0.8078511357307434,0.2780717611312866,-0.24399448931217194,0.5292903184890747,0.8028974533081055,0.9224461913108826,1.2234774827957153,1.142791748046875,0.9001922011375427,0.12731240689754486,0.42131277918815613,0.5910141468048096,0.4501155614852905,0.12129571288824081,-0.3786996603012085,0.11556372791528702
8,847.4556180513822,853.716548039363,866.2383774977463,848.974367581881,847.1146850585938,0.12967936197916666,-0.3201497395833333,0.9304402669270834,-1.62994384765625,4.752756754557292,7.5054677327473955,0.9565210938453674,-0.03584681451320648,0.44117775559425354,0.8896816968917847,0.7930712699890137,0.2619921565055847,-0.25692206621170044,0.5348808765411377,0.7804832458496094,0.5848202705383301,1.2195237874984741,1.0897166728973389,0.8774181008338928,0.052111439406871796,0.4092283844947815,0.5702307820320129,0.4563579857349396,0.09885653853416443,-0.39304015040397644,0.1415451467037201
9,842.6824458195613,853.5615633451022,860.3648892916166,846.2623314490685,841.0397268442007,0.11472574869791667,-0.3172607421875,0.9428507486979166,-0.8074951171875,6.597035725911458,8.341623942057291,0.9565210938453674,0.050112560391426086,0.4398394227027893,0.8915539979934692,0.775368332862854,0.2952691316604614,-0.2632106840610504,0.5357149243354797,0.7667135000228882,0.6126623749732971,1.208326816558838,1.0455946922302246,0.8531501889228821,0.07529959082603455,0.3810485005378723,0.5482927560806274,0.45816266536712646,0.09635394811630249,-0.4022381007671356,0.1617009937763214
10,840.7452768179087,850.1676541841947,857.4049072265625,837.5683265099159,843.2868370643029,0.121826171875,-0.3150838216145833,0.9318949381510416,-1.7059580485026042,4.1608428955078125,7.304840087890625,0.9565210938453674,0.13083627820014954,0.44031599164009094,0.8945161700248718,0.7555130124092102,0.3178409934043884,-0.2650631368160248,0.5244991183280945,0.7604719996452332,0.6183507442474365,1.1771351099014282,1.0086814165115356,0.8261648416519165,0.11777576804161072,0.3253767490386963,0.521959662437439,0.45234882831573486,0.09657693654298782,-0.4141996204853058,0.1672302633523941
11,832.2992459810697,870.190190241887,855.0338134765625,837.7233041616587,857.2034372182993,0.12148030598958333,-0.3187255859375,0.93023681640625,-2.086029052734375,4.847462972005208,6.046244303385417,0.9565210938453674,0.18451957404613495,0.4525047242641449,0.9107105135917664,0.7369800806045532,0.3294179141521454,-0.2640247642993927,0.5044155716896057,0.7584830522537231,0.6093978881835938,1.1091983318328857,0.9789007306098938,0.7980542778968811,0.168345645070076,0.2367151826620102,0.49159592390060425,0.4411570131778717,0.09835507720708847,-0.4392778277397156,0.1581392139196396
12,843.6122882549579,863.2628901554988,856.5215571476863,840.3578467735878,847.1301762507512,0.11455620659722222,-0.3181084526909722,0.9318508572048612,-2.2073194715711804,4.56085205078125,5.679880777994792,0.892579972743988,0.2276657670736313,0.41878488659858704,0.9233770966529846,0.6987418532371521,0.3417845666408539,-0.26178622245788574,0.48397740721702576,0.6781409382820129,0.5920157432556152,0.9934800267219543,0.9557749032974243,0.6448391079902649,0.21950656175613403,0.11781224608421326,0.46068844199180603,0.4072530269622803,0.10904797166585922,-0.4815351665019989,0.13954618573188782
13,840.6578759765625,854.9377270507813,857.3553149414063,841.9956005859375,844.4937744140625,0.12091064453125,-0.3297119140625,0.9292805989583334,-3.1352742513020835,3.865509033203125,5.330963134765625,0.8389601111412048,0.26232093572616577,0.2943277657032013,0.9275063276290894,0.6512237787246704,0.36707305908203125,-0.2609863579273224,0.46859776973724365,0.6131241321563721,0.5937110185623169,0.8368479013442993,0.9360346794128418,0.47134706377983093,0.27934667468070984,-0.027412954717874527,0.4312019348144531,0.3640071451663971,0.14118140935897827,-0.5338164567947388,0.11726504564285278
14,839.3195213904747,851.8723567082332,858.2882526104266,840.5748079740084,844.0152141864484,0.113555908203125,-0.3272298177083333,0.9291178385416666,-2.1707661946614585,4.3801625569661455,5.425669352213542,0.7937339544296265,0.29193559288978577,0.12055157124996185,0.7851184010505676,0.5942856669425964,0.40247952938079834,-0.26556095480918884,0.44213056564331055,0.5872991681098938,0.6334599852561951,0.6695700883865356,0.49224653840065,0.3357224762439728,0.3424190282821655,-0.18483439087867737,0.24345676600933075,0.32255953550338745,0.1901591569185257,-0.5816411375999451,0.028887448832392693
15,845.239504300631,853.1896315354568,858.0557884803185,844.263174203726,842.2020263671875,0.1151123046875,-0.32965087890625,0.9253946940104166,-2.011260986328125,4.66552734375,4.909769694010417,0.7470253705978394,0.34651443362236023,0.038026511669158936,0.7851184010505676,0.5324110984802246,0.43572431802749634,-0.27588793635368347,0.4328975975513458,0.579225480556488,0.6911899447441101,0.5283544063568115,0.4928765296936035,0.2823358476161957,0.3923392593860626,-0.32411831617355347,0.2193898856639862,0.29019927978515625,0.2360449731349945,-0.6160361766815186,0.00880363117903471
16,847.7965580866887,853.8095280573918,859.2800809420072,845.7819096491887,850.632570706881,0.11912027994791667,-0.3237711588541667,0.93304443359375,-1.3470713297526042,3.298517862955729,4.857432047526042,0.7350795269012451,0.3866245448589325,0.039741337299346924,0.7851184010505676,0.4797877371311188,0.45897606015205383,-0.28816890716552734,0.4231441020965576,0.5674628615379333,0.7377777099609375,0.4136829674243927,0.48498064279556274,0.28464943170547485,0.41739052534103394,-0.4073478579521179,0.19742515683174133,0.26559585332870483,0.26407963037490845,-0.6427307724952698,-0.00704736914485693
17,852.8908422851563,853.6967041015625,864.4468896484375,855.953115234375,848.3780200195313,0.130419921875,-0.319921875,0.923193359375,-2.184473673502604,5.530344645182292,4.9234771728515625,0.7411145567893982,0.39933788776397705,0.039741337299346924,0.7851184010505676,0.4530126452445984,0.4729311764240265,-0.2940557599067688,0.4044726490974426,0.5489044189453125,0.7603803277015686,0.31104785203933716,0.4176281690597534,0.3004911541938782,0.41807132959365845,-0.4536200761795044,0.17183367908000946,0.24335402250289917,0.27295592427253723,-0.6722883582115173,-0.016608167439699173
18,855.888642578125,855.7113598632812,861.062265625,855.808056640625,843.97802734375,0.10907999674479167,-0.3263041178385417,0.9350992838541666,-1.5900675455729167,5.9203847249348955,9.581527709960938,0.7423305511474609,0.4020536541938782,0.039741337299346924,0.7851184010505676,0.45230191946029663,0.4808013141155243,-0.28683823347091675,0.3832065463066101,0.5296112298965454,0.7578014731407166,0.1841944307088852,0.3690231442451477,0.312014639377594,0.4052557349205017,-0.49010786414146423,0.14183872938156128,0.22307851910591125,0.26967713236808777,-0.7049293518066406,-0.00896824523806572
19,849.8731994628906,855.0958017202524,862.5500136155349,845.5184537447416,852.3682697002704,0.11186726888020833,-0.3223775227864583,0.9311421712239584,-2.189458211263021,4.5645904541015625,3.072967529296875,0.7374524474143982,0.40554898977279663,0.039741337299346924,0.7742569446563721,0.45988723635673523,0.49549299478530884,-0.2670835852622986,0.3611789345741272,0.5257519483566284,0.7522193789482117,0.08617641776800156,0.3613763451576233,0.32547974586486816,0.40182462334632874,-0.525938868522644,0.10188271105289459,0.2053549885749817,0.2727186381816864,-0.7314637303352356,0.006982581689953804
20,838.1417283278245,856.3975783128005,861.6356670673077,837.3358717698318,854.2589416503906,0.10642496744791667,-0.3296712239583333,0.9282023111979166,-2.5371297200520835,4.702911376953125,5.834401448567708,0.7375422716140747,0.406219482421875,0.03962446376681328,0.748371422290802,0.4586046040058136,0.5096770524978638,-0.24309086799621582,0.34251949191093445,0.5453983545303345,0.7479448914527893,0.052695244550704956,0.4149523973464966,0.34430208802223206,0.40188419818878174,-0.5457519292831421,0.056628189980983734,0.18756064772605896,0.2700243592262268,-0.7416847944259644,0.019456997513771057
21,836.0960810734675,856.382077730619,866.2693716195913,833.0431142953726,847.285153902494,0.10965983072916667,-0.3284200032552083,0.9304606119791666,-1.9165547688802083,4.4100697835286455,4.735310872395833,0.7375763654708862,0.40989023447036743,0.03654513880610466,0.7426784038543701,0.44566866755485535,0.5232139825820923,-0.22249247133731842,0.32763344049453735,0.585642397403717,0.7333104610443115,0.055475495755672455,0.5113015174865723,0.35766372084617615,0.4028184413909912,-0.5478721261024475,0.008827617391943932,0.16188444197177887,0.26523056626319885,-0.7383980751037598,0.019032374024391174
22,829.1532827524038,852.4612544133113,860.2874075082632,832.6091825045072,844.4336360051082,0.10550944010416667,-0.3314412434895833,0.9263712565104166,-2.3028564453125,5.555267333984375,4.239349365234375,0.7315919995307922,0.40783053636550903,0.03654513880610466,0.7353584170341492,0.4302273988723755,0.5363391041755676,-0.2091602087020874,0.31237247586250305,0.6465672254562378,0.7094199061393738,0.06256148964166641,0.6198381781578064,0.35621750354766846,0.39964714646339417,-0.5331636667251587,-0.041034821420907974,0.12091119587421417,0.2623760402202606,-0.733742356300354,0.0033920956775546074
23,836.7897485351563,852.7135498046875,861.7230737304687,835.3714282226563,839.4490795898438,0.11458333333333333,-0.3318277994791667,0.9309895833333334,-2.645294189453125,4.341033935546875,4.975067138671875,0.7209112644195557,0.3972311317920685,0.05376257374882698,0.7235508561134338,0.4252791702747345,0.5459483861923218,-0.2025245875120163,0.2956315875053406,0.7070165872573853,0.6797952651977539,0.06129384785890579,0.7097395062446594,0.3427935838699341,0.3909578025341034,-0.5016507506370544,-0.08466673642396927,0.06692428886890411,0.26129603385925293,-0.7384238243103027,-0.021728433668613434
24,840.88475388747,854.7393657977765,860.6593440129207,843.5347970815806,844.5421189528245,0.10982259114583333,-0.3372395833333333,0.928192138671875,-3.2623799641927085,5.3596242268880205,5.004475911458333,0.720305860042572,0.39569535851478577,0.08187162131071091,0.7032079696655273,0.434787780046463,0.5491868257522583,-0.20037519931793213,0.28397977352142334,0.7532623410224915,0.6496562361717224,0.05355491489171982,0.7709298133850098,0.33347898721694946,0.3763343393802643,-0.45491665601730347,-0.10663100332021713,0.013537035323679447,0.25887298583984375,-0.7539488077163696,-0.04555001109838486
25,837.8937823955829,852.9571721003606,863.7433049128606,837.6458200307993,843.4728111853966,0.10758463541666667,-0.339569091796875,0.9264424641927084,-3.4804534912109375,5.777079264322917,4.2131805419921875,0.7002969980239868,0.39569535851478577,0.08534715324640274,0.6613795757293701,0.45018941164016724,0.5477890968322754,-0.20366492867469788,0.2830445468425751,0.780340850353241,0.6256203055381775,0.037145402282476425,0.807124137878418,0.33906838297843933,0.3557949364185333,-0.40540367364883423,-0.10169407725334167,-0.02381320111453533,0.25333917140960693,-0.7739205956459045,-0.057934004813432693
26,838.6996319110577,850.1521582970253,866.2073833759015,836.5609975961538,851.8258690467247,0.095458984375,-0.3472493489583333,0.9190470377604166,-3.5888671875,4.418792724609375,4.658050537109375,0.6554639339447021,0.39569535851478577,0.08730784803628922,0.6420513391494751,0.46088719367980957,0.5465296506881714,-0.2163061946630478,0.29034432768821716,0.7904852628707886,0.6092355251312256,0.0060927988961339,0.824812114238739,0.3606317937374115,0.3296658992767334,-0.36846649646759033,-0.06869872659444809,-0.040654562413692474,0.24687965214252472,-0.7898672819137573,-0.054636452347040176
27,838.2967012845553,849.0208482008713,870.6241149902344,841.566641000601,853.329106257512,0.10154215494791667,-0.3471781412760417,0.9234212239583334,-3.754852294921875,4.43524169921875,3.686065673828125,0.623324990272522,0.39924243092536926,0.08041847497224808,0.6529143452644348,0.46826276183128357,0.5459421277046204,-0.2407640814781189,0.30230170488357544,0.7910044193267822,0.5987089276313782,-0.036479052156209946,0.83138108253479,0.4032191336154938,0.2965939939022064,-0.34973254799842834,0.013826059177517891,-0.03914966806769371,0.2381720095872879,-0.7966822981834412,-0.036048442125320435
28,840.3268526517428,860.4423757699819,871.2130173903245,839.5829772949219,840.9467468261719,0.10019938151041667,-0.3524373372395833,0.9188232421875,-2.9633076985677085,3.9352925618489585,5.749664306640625,0.828387975692749,0.40276452898979187,0.015190106816589832,0.8536936640739441,0.5139289498329163,0.5221672654151917,-0.31350937485694885,0.3451620936393738,0.80008465051651,0.5246479511260986,-0.0684819445014,0.8547596335411072,0.5565415620803833,0.17289894819259644,-0.3243805766105652,0.3112661838531494,0.014828195795416832,0.18119853734970093,-0.7919002175331116,0.024783208966255188
29,853.360105074369,868.4854853703425,877.0555138221154,852.4302626389724,849.7957176795372,0.1078219943576389,-0.3559095594618056,0.9190538194444444,-0.6945122612847222,6.062859429253472,6.198272705078125,0.858890175819397,0.40599188208580017,0.06972251832485199,0.9291884303092957,0.5501418709754944,0.4946780204772949,-0.3453139066696167,0.3687134087085724,0.8072129487991333,0.4427795708179474,-0.043801695108413696,0.873606264591217,0.6251974701881409,0.08294597268104553,-0.2783624231815338,0.44014987349510193,0.05284465476870537,0.130461648106575,-0.7873200178146362,0.05119217187166214
30,844.4801354041466,863.2783907376803,864.4561838003306,843.4108229417068,850.6480642465444,0.10721842447916667,-0.34307861328125,0.9337972005208334,-0.5956522623697916,4.3365478515625,5.223795572916667,0.860863208770752,0.3808167576789856,0.18501541018486023,0.9397155046463013,0.5780069231987,0.46511662006378174,-0.36451879143714905,0.3895188868045807,0.8161913156509399,0.3604133129119873,-0.0020780533086508512,0.8954721689224243,0.6708975434303284,0.00245438190177083,-0.1937822550535202,0.536885678768158,0.08571059256792068,0.08299906551837921,-0.7814672589302063,0.07101424783468246
31,837.9247694749099,866.3003704364484,867.6951246995193,838.0332453801082,843.255849984976,0.1014404296875,-0.3510640462239583,0.9199320475260416,-3.0829366048177085,3.3084869384765625,7.449391682942708,0.8618695139884949,0.3338918387889862,0.27429187297821045,0.9488486051559448,0.5894359946250916,0.44087618589401245,-0.37134844064712524,0.41803258657455444,0.8288061022758484,0.32437199354171753,0.06411108374595642,0.9180301427841187,0.700454831123352,-0.0402197539806366,-0.07830379158258438,0.6156851053237915,0.11187656968832016,0.05553803965449333,-0.7705815434455872,0.09038139134645462
32,834.8407991849459,864.3941955566406,863.9912696251503,836.5765005258413,851.5159231332632,0.08797200520833333,-0.3563639322916667,0.9178059895833334,-2.3352559407552085,4.59075927734375,6.088612874348958,0.862586259841919,0.32211971282958984,0.31286361813545227,0.987616777420044,0.5873139500617981,0.42611584067344666,-0.3695118725299835,0.46383345127105713,0.844255805015564,0.34442803263664246,0.15371116995811462,0.9395491480827332,0.7227723002433777,-0.04530280455946922,0.046752870082855225,0.6855584979057312,0.13267800211906433,0.04961289092898369,-0.7508425712585449,0.1138644888997078
33,841.566636305589,858.5672020545372,864.3786973219651,843.6432823768029,849.4392794095553,0.09742228190104167,-0.358917236328125,0.9207865397135416,-1.5372314453125,5.03338623046875,5.9754638671875,0.8692820072174072,0.32645416259765625,0.31286361813545227,1.0101450681686401,0.58061283826828,0.4221699833869934,-0.363776832818985,0.518257200717926,0.8605175018310547,0.38293007016181946,0.2371237725019455,0.9545642137527466,0.7366786599159241,-0.03245728462934494,0.15389440953731537,0.7421346306800842,0.14682093262672424,0.05448546260595322,-0.7233180403709412,0.13784560561180115
34,828.7956030273438,838.917216796875,876.5992651367187,838.4659301757813,854.4703295898438,0.0931396484375,-0.3546346028645833,0.9233805338541666,-0.88226318359375,5.096689860026042,7.778371175130208,0.8738381862640381,0.3352215886116028,0.31286361813545227,1.0160026550292969,0.5770249962806702,0.4256133437156677,-0.357069730758667,0.5638048648834229,0.870398998260498,0.43183866143226624,0.29667580127716064,0.9540849328041077,0.7384028434753418,-0.012329351156949997,0.22911718487739563,0.7790042757987976,0.15455041825771332,0.05896959826350212,-0.696281373500824,0.15486641228199005
35,836.7314734825721,857.032970721905,866.3778545673077,843.19385939378,843.8137512207031,0.0824245876736111,-0.35687255859375,0.9189995659722222,-1.5418836805555556,5.743018256293403,6.557990180121528,0.8772042393684387,0.3526087701320648,0.31286361813545227,1.0203300714492798,0.5799676775932312,0.42830395698547363,-0.35093584656715393,0.5918385982513428,0.8661096692085266,0.484942764043808,0.34074971079826355,0.9333135485649109,0.7323806285858154,0.017902584746479988,0.27185896039009094,0.7979351878166199,0.16313768923282623,0.05532607436180115,-0.6741111278533936,0.162175714969635
36,844.7062830041956,851.0934719509548,863.9872504340278,844.9301283094618,843.1094812463831,0.099365234375,-0.3569132486979167,0.9228312174479166,-0.019938151041666668,5.208841959635417,4.760233561197917,0.881416380405426,0.38005587458610535,0.31396639347076416,1.0309886932373047,0.5929030179977417,0.4249231219291687,-0.343959242105484,0.6083087921142578,0.8436658382415771,0.5624372363090515,0.3789810240268707,0.8928561210632324,0.7302830815315247,0.08909574151039124,0.295670747756958,0.8070878982543945,0.1842791885137558,0.0426097996532917,-0.6521238684654236,0.16513729095458984
37,845.1062329101562,849.2805908203125,861.2879052734374,849.0871875,842.39853515625,0.08409627278645833,-0.3525390625,0.9218546549479166,-0.2753957112630208,5.1477813720703125,6.868693033854167,0.8879618644714355,0.41640275716781616,0.32509467005729675,1.0610295534133911,0.6185224056243896,0.41870173811912537,-0.33393746614456177,0.6238844990730286,0.8184604644775391,0.6616345047950745,0.42389166355133057,0.8435989618301392,0.7394802570343018,0.21536241471767426,0.3196408450603485,0.8133049011230469,0.21987077593803406,0.027347972616553307,-0.6234257221221924,0.1698468178510666
38,830.0211369441106,850.6170748197115,854.9718205378606,832.8571425217849,853.4530850923978,0.07279459635416667,-0.3487752278645833,0.92303466796875,-0.605621337890625,5.597635904947917,7.2363026936848955,0.9064248204231262,0.43138396739959717,0.3330748379230499,1.083600401878357,0.6525908708572388,0.4171470105648041,-0.3217422664165497,0.6430448889732361,0.8001359105110168,0.7499674558639526,0.47930121421813965,0.7955382466316223,0.7552557587623596,0.35870030522346497,0.34858018159866333,0.8187063932418823,0.2597332298755646,0.018436549231410027,-0.5904063582420349,0.17600947618484497
39,837.6600756835937,851.3919384765625,849.5223461914062,840.883515625,849.7641015625,0.07004801432291667,-0.35089111328125,0.9234415690104166,-0.7476806640625,3.985137939453125,6.522267659505208,0.9143618941307068,0.4317610561847687,0.3367806077003479,1.0868120193481445,0.6847921013832092,0.423255980014801,-0.3116520941257477,0.6642512083053589,0.7972436547279358,0.8063918352127075,0.5413857698440552,0.7609310150146484,0.7679594159126282,0.47212451696395874,0.3725762367248535,0.8235983848571777,0.293819785118103,0.021581418812274933,-0.5622125864028931,0.1777333766222
40,846.5245385742187,852.05275390625,849.151650390625,846.2666674804688,855.695244140625,0.07713623046875,-0.34552001953125,0.926318359375,-0.897216796875,4.1409047444661455,6.1521657307942705,0.9177931547164917,0.4317610561847687,0.3367806077003479,1.0868120193481445,0.7107561826705933,0.433445543050766,-0.30559366941452026,0.6883461475372314,0.8100516200065613,0.832248866558075,0.5949523448944092,0.7471961379051208,0.7722830772399902,0.5378771424293518,0.38482555747032166,0.8282226920127869,0.32035526633262634,0.034769900143146515,-0.5444371104240417,0.17426013946533203
41,844.3096642127404,851.2679607684796,843.8602412297175,842.1400428185096,845.9988685021034,0.0648193359375,-0.3465677897135417,0.9240926106770834,-2.244288126627604,4.301656087239583,6.6680653889973955,0.9179487228393555,0.4317610561847687,0.3367806077003479,1.0868120193481445,0.7318812608718872,0.44346243143081665,-0.3013283908367157,0.7165294289588928,0.8322779536247253,0.8403053283691406,0.6369414329528809,0.7526416182518005,0.7655511498451233,0.5632295608520508,0.3859948217868805,0.8294564485549927,0.3411877751350403,0.05058375373482704,-0.5367936491966248,0.1680828183889389
42,842.2795128455529,841.6131310096154,849.0983440692609,843.0543823242188,849.4547752967247,0.07334391276041667,-0.3479715983072917,0.92535400390625,-0.9732309977213541,3.9352925618489585,4.269256591796875,0.9202423095703125,0.43175920844078064,0.3367806077003479,1.0868120193481445,0.7481832504272461,0.45311546325683594,-0.29136577248573303,0.7443156242370605,0.8548409938812256,0.8401541709899902,0.6686516404151917,0.7620916366577148,0.7414058446884155,0.5659650564193726,0.3822239339351654,0.8203015327453613,0.3557344377040863,0.06159965321421623,-0.5370674133300781,0.16258244216442108
43,837.3203735351562,830.2380911020132,849.9661865234375,835.7241469163162,851.8103708120493,0.07773844401041667,-0.3493448893229167,0.926025390625,-1.5053304036458333,3.491668701171875,6.86370849609375,0.9340000748634338,0.42916348576545715,0.33887696266174316,1.0868120193481445,0.7563519477844238,0.46546831727027893,-0.26809701323509216,0.7649827003479004,0.87437504529953,0.8415724039077759,0.6934207677841187,0.7626186013221741,0.6959972381591797,0.5604656338691711,0.37778159976005554,0.7974138259887695,0.3621635138988495,0.06389439851045609,-0.5428825616836548,0.15971969068050385
44,835.6156663161057,841.1947091909556,853.8715139535757,840.9157456618088,842.6049593411959,0.073394775390625,-0.3484090169270833,0.9246826171875,-1.0517374674479167,4.209442138671875,5.231272379557292,0.8915023803710938,0.4157794713973999,0.34723642468452454,1.0778899192810059,0.7548158168792725,0.4806720018386841,-0.23151922225952148,0.7770917415618896,0.8878017663955688,0.8455491065979004,0.7084379196166992,0.749904453754425,0.6353004574775696,0.5533998012542725,0.36984121799468994,0.7627196311950684,0.36263367533683777,0.05801542103290558,-0.5499044060707092,0.16027498245239258
45,831.074946476863,841.210193340595,857.7613314115084,834.747812124399,842.7134399414062,0.07122802734375,-0.3499755859375,0.922332763671875,-1.9140625,4.5421600341796875,4.643096923828125,0.8627594113349915,0.40923449397087097,0.35203951597213745,1.0656803846359253,0.7481967210769653,0.4937816858291626,-0.19199587404727936,0.7822941541671753,0.8932258486747742,0.8621909022331238,0.7180994153022766,0.7246300578117371,0.5735041499137878,0.5477959513664246,0.351889044046402,0.720165491104126,0.36044225096702576,0.04613987356424332,-0.5532041192054749,0.16096137464046478
46,839.7689514160156,845.4099731445312,857.8543255145734,844.588623046875,844.5421213003306,0.07524617513020833,-0.3492635091145833,0.924407958984375,-1.7308807373046875,3.909123738606771,4.9558766682942705,0.8638097643852234,0.43982231616973877,0.33972597122192383,1.0589369535446167,0.7428988814353943,0.49845051765441895,-0.16312363743782043,0.7796997427940369,0.8917612433433533,0.885919988155365,0.7196455597877502,0.689977765083313,0.5191638469696045,0.5445263981819153,0.31636589765548706,0.6668434143066406,0.35747799277305603,0.028529521077871323,-0.552481472492218,0.15462248027324677
47,841.4736539400541,850.4620971679688,852.0118384728065,840.6367962176984,844.0927077073318,0.07564290364583333,-0.3545328776041667,0.9239705403645834,-2.10845947265625,4.849955240885417,2.977015177408854,0.8935716152191162,0.45658594369888306,0.28822359442710876,1.0533689260482788,0.7420487403869629,0.49152275919914246,-0.15274642407894135,0.7662630677223206,0.8825077414512634,0.9128730297088623,0.7106723189353943,0.6478241682052612,0.4695669710636139,0.5424937009811401,0.25641143321990967,0.5990248918533325,0.35518690943717957,0.005620353855192661,-0.5530803203582764,0.1387130171060562
48,839.8619314340444,849.0363511305588,855.0648052509015,844.588620699369,846.4637944148137,0.074676513671875,-0.3428446451822917,0.92626953125,-0.8810170491536459,4.3652089436848955,6.6406504313151045,0.9265016913414001,0.4614320993423462,0.23207642138004303,1.0361578464508057,0.7448544502258301,0.4746255874633789,-0.16009551286697388,0.7437029480934143,0.8673467636108398,0.9345100522041321,0.6966946721076965,0.6043457984924316,0.42593255639076233,0.5392381548881531,0.1749567836523056,0.5250335335731506,0.35638168454170227,-0.018073348328471184,-0.5602208375930786,0.1216549277305603
49,841.9006980613426,843.7213338216146,854.9884733977141,846.5120103624132,850.3174574110243,0.07484130859375,-0.34991455078125,0.92593994140625,-2.139612833658854,2.8449249267578125,6.3540395100911455,0.9805682301521301,0.4783901274204254,0.22311407327651978,1.009796380996704,0.7512048482894897,0.4536455571651459,-0.17771515250205994,0.720770001411438,0.8501664996147156,0.9405525326728821,0.6834599375724792,0.5706155300140381,0.3956136703491211,0.532332718372345,0.08791927248239517,0.4670279920101166,0.36264359951019287,-0.03482083976268768,-0.573022186756134,0.11731808632612228
50,847.9980233999399,843.3798264723557,860.1634239783654,846.0143761268029,844.0927006648137,0.08308919270833333,-0.3506876627604167,0.9236857096354166,-1.6748046875,4.246826171875,5.610097249348958,1.024045705795288,0.5042295455932617,0.22311407327651978,0.9978680610656738,0.7584303617477417,0.43433046340942383,-0.1966034322977066,0.7043980956077576,0.8347858190536499,0.9368575215339661,0.6694775819778442,0.5477770566940308,0.37688514590263367,0.5202667713165283,0.02025587111711502,0.4383631646633148,0.3680047392845154,-0.03881487622857094,-0.5865785479545593,0.1283305585384369
51,844.7900813176082,846.277822641226,861.3257235013522,848.2149822528546,842.0780522273137,0.07390340169270833,-0.34832763671875,0.924896240234375,-1.4841461181640625,4.363962809244792,4.9334462483723955,1.0224493741989136,0.5159006714820862,0.22311407327651978,0.991392970085144,0.7584971189498901,0.41964879631996155,-0.2114804983139038,0.6917909383773804,0.8190931677818298,0.9173734188079834,0.6542051434516907,0.5311182737350464,0.3527032434940338,0.49269187450408936,-0.025563249364495277,0.42998895049095154,0.36392417550086975,-0.031463783234357834,-0.600976288318634,0.14252905547618866
52,843.8602435772235,849.59425001878,858.7996614896334,847.3626333383413,851.1129901592548,0.07765706380208333,-0.3483072916666667,0.9253946940104166,-2.1632893880208335,3.887939453125,5.794525146484375,1.0176365375518799,0.535561203956604,0.22311407327651978,0.9801850318908691,0.7444840669631958,0.40842822194099426,-0.22114741802215576,0.6772297024726868,0.7954510450363159,0.8734742403030396,0.6352623105049133,0.5142627358436584,0.3075654208660126,0.4304586350917816,-0.08127938210964203,0.4315972328186035,0.35068416595458984,-0.0195475947111845,-0.6182110905647278,0.1497199535369873
53,846.1693373460037,847.7035780686599,855.731191781851,843.6742718036359,850.2761300893931,0.0725368923611111,-0.3534749348958333,0.9228583441840278,-2.0635986328125,4.158766004774305,5.160658094618055,1.0176365375518799,0.5494000315666199,0.19408132135868073,0.9167711734771729,0.7179523706436157,0.39712080359458923,-0.2265615165233612,0.6600704789161682,0.7647600173950195,0.8143613934516907,0.607162594795227,0.5055665373802185,0.24308401346206665,0.3146141469478607,-0.16979002952575684,0.4500555396080017,0.3374318778514862,-0.011313309893012047,-0.6345016360282898,0.15158480405807495
54,853.0191626915565,857.094956618089,855.6537076509916,856.5370506873497,851.4539325420673,0.07633463541666667,-0.3547159830729167,0.9179280598958334,-1.039276123046875,3.51409912109375,4.618174235026042,1.0176365375518799,0.5436047315597534,0.0933489203453064,0.872637927532196,0.6891152858734131,0.38251420855522156,-0.2281341850757599,0.6430813074111938,0.7239200472831726,0.7648892998695374,0.565769374370575,0.4949345290660858,0.17922452092170715,0.14286532998085022,-0.2736485004425049,0.4924829602241516,0.33049440383911133,-0.013498551212251186,-0.6406781077384949,0.15670277178287506
55,854.2285693359376,859.0959716796875,852.5846166992187,849.7641040039063,850.15091796875,0.07708740234375,-0.3544718424479167,0.923309326171875,-0.8012644449869791,3.461761474609375,5.3122711181640625,1.0176365375518799,0.5205752849578857,-0.0006224121898412704,0.8502748012542725,0.664921760559082,0.36326274275779724,-0.22764989733695984,0.6225873827934265,0.6712938547134399,0.7431491017341614,0.5207886099815369,0.46842876076698303,0.1332218050956726,-0.04772059991955757,-0.34907007217407227,0.5471500158309937,0.324558287858963,-0.030950969085097313,-0.6347122192382812,0.1660524308681488
56,846.1073584923378,852.8331885704628,861.5581829364484,850.8650324894832,846.572267972506,0.08424886067708333,-0.3501180013020833,0.9258829752604166,-0.16448974609375,3.715972900390625,5.485483805338542,1.0176365375518799,0.5210137367248535,-0.023110080510377884,0.8357250690460205,0.643498957157135,0.34051987528800964,-0.2259860336780548,0.5905852317810059,0.6132625341415405,0.7448770999908447,0.4714866578578949,0.4201542139053345,0.10113845765590668,-0.17093677818775177,-0.36199018359184265,0.5955073237419128,0.3114592730998993,-0.06261022388935089,-0.6249669194221497,0.1784512847661972
57,841.4891568697416,854.0884775015024,859.3110703688401,844.6041165865385,848.8658775916466,0.077056884765625,-0.3470967610677083,0.9293619791666666,-0.5744679768880209,3.8380940755208335,5.3023020426432295,1.015146017074585,0.5268329977989197,-0.023110080510377884,0.825658917427063,0.6203204393386841,0.3174952268600464,-0.22414134442806244,0.5456498265266418,0.5570191144943237,0.7640235424041748,0.4193887412548065,0.3598683476448059,0.07054654508829117,-0.18460433185100555,-0.33464953303337097,0.6295784711837769,0.292152464389801,-0.09965039044618607,-0.6170551180839539,0.19609634578227997
58,840.3268526517428,862.7049865722656,860.7523240309495,840.2338679387019,841.7990910456731,0.08332316080729167,-0.34674072265625,0.92047119140625,-2.600682576497396,1.9975535074869792,3.702265421549479,0.991459846496582,0.532297670841217,0.006415797397494316,0.7879526615142822,0.5971964597702026,0.29794737696647644,-0.22707568109035492,0.4979517459869385,0.5145028829574585,0.7850840091705322,0.36986491084098816,0.31806889176368713,0.044619254767894745,-0.14535465836524963,-0.29843583703041077,0.6538723707199097,0.27589482069015503,-0.12580536305904388,-0.607898473739624,0.2193579524755478
59,843.0078899676984,861.3257281963641,859.9774592472957,844.9915466308594,844.1236947866587,0.08469645182291667,-0.3489888509114583,0.9255574544270834,-1.0903676350911458,4.5496368408203125,6.018829345703125,0.969702422618866,0.5329970121383667,0.01721900887787342,0.7002936005592346,0.5783994197845459,0.2859848737716675,-0.2411879301071167,0.4597645401954651,0.49577125906944275,0.7940825819969177,0.3402485251426697,0.31112003326416016,0.03495072200894356,-0.10871650278568268,-0.26175495982170105,0.6747908592224121,0.2690555155277252,-0.1287931203842163,-0.5932135581970215,0.2411099374294281
60,847.6570857121394,861.5426893967849,858.1177837665265,844.8985572228065,847.6725815993088,0.08935546875,-0.3471272786458333,0.9211832682291666,-0.9694925944010416,5.061798095703125,3.84307861328125,0.9689018130302429,0.5334323644638062,0.005448051728308201,0.6313801407814026,0.5631327629089355,0.28541284799575806,-0.26849624514579773,0.4334394633769989,0.5005539655685425,0.7734403014183044,0.31946179270744324,0.33080047369003296,0.04043344780802727,-0.09470392763614655,-0.2295583188533783,0.6920768022537231,0.2708287537097931,-0.10897422581911087,-0.5752893090248108,0.25328367948532104
61,840.6522991473859,855.3592552771935,858.2417579064003,842.2950134277344,852.1668114295372,0.081146240234375,-0.3492024739583333,0.930206298828125,-1.0342915852864583,4.309132893880208,5.8032480875651045,0.9699932336807251,0.5334323644638062,-0.0019119115313515067,0.5982784628868103,0.5493490695953369,0.29736173152923584,-0.30159252882003784,0.4125406742095947,0.509827196598053,0.7289366126060486,0.3002820909023285,0.3522001802921295,0.05012683570384979,-0.10090770572423935,-0.20868279039859772,0.701820969581604,0.2770455479621887,-0.07459135353565216,-0.5589485764503479,0.2541635036468506
62,838.3276977539062,847.0836838942307,861.775148831881,841.1947044959435,841.0242309570312,0.092803955078125,-0.34405517578125,0.9211222330729166,-0.8037567138671875,0.7888031005859375,4.1010284423828125,0.970959484577179,0.5246423482894897,-0.014271438121795654,0.5766811370849609,0.5382803082466125,0.3175492584705353,-0.3291780352592468,0.3909416198730469,0.5128723978996277,0.6730211973190308,0.27580976486206055,0.3653564751148224,0.05488909035921097,-0.1165749579668045,-0.19956941902637482,0.7029010653495789,0.28177911043167114,-0.03274616226553917,-0.5460296273231506,0.2471224069595337
63,838.0630029296875,857.6454223632812,861.1428491210937,838.7399267578126,842.5919409179687,0.08856201171875,-0.3450113932291667,0.927490234375,-1.6025288899739583,3.4443155924479165,7.905476888020833,0.973189651966095,0.505243182182312,-0.04471921920776367,0.5580512285232544,0.5324629545211792,0.3381478190422058,-0.34532666206359863,0.36649492383003235,0.5057470798492432,0.6261910200119019,0.2409244179725647,0.3661321997642517,0.050354789942502975,-0.13251592218875885,-0.19963079690933228,0.6979233622550964,0.2795024514198303,0.0125975850969553,-0.5352367758750916,0.23442399501800537
64,835.0422644981971,857.2964242788462,859.5435391939603,835.7396404559796,845.0845360389122,0.095458984375,-0.345458984375,0.9249776204427084,-2.1583048502604165,5.440622965494792,5.161488850911458,0.9573372006416321,0.4940451979637146,-0.08190252631902695,0.542155921459198,0.5277411937713623,0.35346102714538574,-0.3519161343574524,0.3392859399318695,0.4994041621685028,0.6118342876434326,0.20418530702590942,0.3603147268295288,0.036658208817243576,-0.13924840092658997,-0.2043120414018631,0.6895415186882019,0.267011821269989,0.057192496955394745,-0.525791585445404,0.2150677591562271
65,840.3578444260818,856.7230130709135,858.7686697152944,839.2730360764724,841.7216116098257,0.08026123046875,-0.34881591796875,0.92205810546875,-1.2660725911458333,5.066782633463542,6.148427327473958,0.93977290391922,0.4792645275592804,-0.09474799036979675,0.5265341401100159,0.5169321894645691,0.36528128385543823,-0.3523661196231842,0.3128003478050232,0.5034351944923401,0.6242595911026001,0.18025052547454834,0.3592994511127472,0.02021900564432144,-0.12516310811042786,-0.2143549770116806,0.6802677512168884,0.2477661520242691,0.09639651328325272,-0.5197466611862183,0.1907198429107666
66,838.5446589543269,857.1724454439603,858.6601891150841,839.2265390249399,847.5021127554087,0.08607991536458333,-0.34716796875,0.92510986328125,-0.7688649495442709,4.3801625569661455,5.3820546468098955,0.8849614262580872,0.4679103195667267,-0.10638528317213058,0.5052576065063477,0.4976442754268646,0.3801620602607727,-0.3508785665035248,0.2895386219024658,0.5116976499557495,0.6480430960655212,0.16665206849575043,0.3641611933708191,0.009920488111674786,-0.08812270313501358,-0.2293989211320877,0.6705148220062256,0.2265384942293167,0.12740737199783325,-0.5184805393218994,0.1656801700592041
67,843.3023352989784,852.9261732835037,860.6283451960637,844.557621882512,851.3609454815204,0.08827718098958333,-0.3450113932291667,0.93206787109375,-0.95703125,4.8748779296875,6.35528564453125,0.79958575963974,0.463539719581604,-0.10638528317213058,0.4999486804008484,0.47400668263435364,0.4016711711883545,-0.35344022512435913,0.26456212997436523,0.5173300504684448,0.6723513007164001,0.14732949435710907,0.37307801842689514,0.01086493581533432,-0.04285673797130585,-0.2501726746559143,0.6568715572357178,0.20105253159999847,0.15094099938869476,-0.5230837464332581,0.14298377931118011
68,833.9729426457332,846.4327955979568,861.3257235013522,836.6074946476863,847.7655686598557,0.08586629231770833,-0.3462320963541667,0.9287211100260416,-1.0529836018880208,3.521575927734375,6.6979726155598955,0.7311887741088867,0.4438058137893677,-0.10638528317213058,0.4999210238456726,0.45102038979530334,0.4257148206233978,-0.363519549369812,0.2309277355670929,0.5141779184341431,0.6888157725334167,0.11516266316175461,0.3769308030605316,0.023296857252717018,-0.00938209518790245,-0.2769681513309479,0.6327472925186157,0.16434001922607422,0.1711132973432541,-0.5342749953269958,0.12151846289634705
69,839.0870689978966,854.5379028320312,860.8453063964844,838.1107318584735,852.2133014385516,0.06888834635416667,-0.3391520182291667,0.9212443033854166,1.1389668782552083,1.6174825032552083,6.26556396484375,0.6843301057815552,0.4011145532131195,-0.10534939914941788,0.4922347962856293,0.42921146750450134,0.44504988193511963,-0.37897732853889465,0.18718641996383667,0.5080090165138245,0.696969211101532,0.07285454124212265,0.3749420642852783,0.04366754740476608,0.00513589708134532,-0.3073926866054535,0.5919383764266968,0.11518218368291855,0.19244445860385895,-0.5518723726272583,0.09963080286979675
70,836.2975510817307,853.4840792142428,859.078610933744,841.566636305589,842.0315598707932,0.09513346354166667,-0.3311055501302083,0.9281412760416666,-1.5215301513671875,4.4624074300130205,3.9153544108072915,0.6643742918968201,0.3477848470211029,-0.09686169773340225,0.48369115591049194,0.40562453866004944,0.4563409686088562,-0.3947608768939972,0.14031855762004852,0.5066300630569458,0.70075523853302,0.02306681126356125,0.3713538348674774,0.06880811601877213,0.008983474224805832,-0.33791741728782654,0.5341427326202393,0.06414127349853516,0.21683751046657562,-0.5715211033821106,0.07747240364551544
71,837.180898813101,854.5069016676682,861.7906494140625,841.1637033315806,845.1000295785757,0.08220418294270833,-0.3462117513020833,0.9247843424479166,-2.6206207275390625,4.271748860677083,7.1914418538411455,0.6566936373710632,0.3255082368850708,-0.08405294269323349,0.4613149166107178,0.3763592839241028,0.46012043952941895,-0.40946272015571594,0.09853973984718323,0.5069607496261597,0.7045880556106567,-0.01659376174211502,0.363050252199173,0.09024818241596222,0.010723735205829144,-0.3675614893436432,0.46460267901420593,0.024524597451090813,0.24233214557170868,-0.5854045748710632,0.05101826414465904
72,842.2950157752404,843.2093552809495,860.6903334397537,841.8765822190505,843.1473670372596,0.08304850260416667,-0.3486735026041667,0.9243977864583334,-1.3346099853515625,4.8150634765625,5.8319091796875,0.6516905426979065,0.2896181643009186,-0.08062562346458435,0.44491326808929443,0.34291478991508484,0.45810699462890625,-0.4247019588947296,0.06411594897508621,0.49701833724975586,0.7018709778785706,-0.05213618651032448,0.3390335738658905,0.10111432522535324,0.017359118908643723,-0.39706146717071533,0.3910713195800781,-0.0005909439059905708,0.2643410563468933,-0.5901933908462524,0.01020148117095232
73,841.504648061899,842.0625492976262,859.3575721153846,841.6751262958234,853.2051250751202,0.08378092447916667,-0.3435160319010417,0.9245198567708334,-0.6454976399739584,5.0730133056640625,5.2375030517578125,0.6425146460533142,0.2212006002664566,-0.08261989057064056,0.44316527247428894,0.31578001379966736,0.45075076818466187,-0.43576580286026,0.033423393964767456,0.46772879362106323,0.6885369420051575,-0.1085931807756424,0.2920427918434143,0.09902481734752655,0.03630766645073891,-0.43014660477638245,0.3200136423110962,-0.015439184382557869,0.2798462212085724,-0.5914885401725769,-0.04869046434760094
74,836.2045640211838,851.4229337252103,860.6903334397537,840.6677926870493,847.9205439640925,0.0804443359375,-0.3393351236979167,0.9327596028645834,0.0897216796875,5.370839436848958,5.335947672526042,0.6345983743667603,0.14694008231163025,-0.1036393940448761,0.4398691654205322,0.31025204062461853,0.43797099590301514,-0.431917279958725,0.005713627208024263,0.4204556941986084,0.6788375377655029,-0.20281197130680084,0.22737917304039001,0.08736315369606018,0.07436410337686539,-0.4606033265590668,0.25963374972343445,-0.022485647350549698,0.29017016291618347,-0.5978782773017883,-0.1109371930360794
75,846.3708073542668,855.5917170597957,862.9219477726863,849.2843088003306,852.321779691256,0.07932535807291667,-0.3389485677083333,0.9279988606770834,-0.6691741943359375,4.6954345703125,5.7484181722005205,0.6175003051757812,0.12785598635673523,-0.10699380934238434,0.43053141236305237,0.32863688468933105,0.4204758405685425,-0.40902459621429443,-0.01453315932303667,0.36463430523872375,0.6851816773414612,-0.31866756081581116,0.15364333987236023,0.07167540490627289,0.12635095417499542,-0.4791167080402374,0.2194581925868988,-0.02090884931385517,0.29903343319892883,-0.6120151281356812,-0.15190021693706512
76,842.9768934983474,856.7695124699519,857.8698214017428,840.1408879206731,840.2803626427284,0.07411702473958333,-0.3349812825520833,0.9311726888020834,-1.143951416015625,4.712880452473958,6.342824300130208,0.6054168939590454,0.16875800490379333,-0.11629835516214371,0.42485421895980835,0.3536405563354492,0.3998268246650696,-0.3758094906806946,-0.023771587759256363,0.3176150321960449,0.7058488130569458,-0.4334883391857147,0.09127436578273773,0.05942068621516228,0.17558610439300537,-0.4812641441822052,0.20416635274887085,-0.012431290000677109,0.3070473372936249,-0.6313029527664185,-0.1649349182844162
77,834.5773479755109,854.9098346416766,857.5908649151141,836.9174405611478,845.0380342923678,0.07428656684027778,-0.3359849717881944,0.92974853515625,-1.0401068793402777,4.383900960286458,5.665757921006945,0.5971550345420837,0.19847138226032257,-0.1296103298664093,0.41591691970825195,0.3648974299430847,0.3784216642379761,-0.344579815864563,-0.021859878674149513,0.29456162452697754,0.7312221527099609,-0.5059913396835327,0.06144881993532181,0.06057984381914139,0.20750786364078522,-0.46701306104660034,0.20759503543376923,0.001126998569816351,0.31002628803253174,-0.6518983244895935,-0.16705292463302612
78,844.3716571514423,855.1887840857872,860.8298105093149,843.162855881911,847.1611680250901,0.07712809244791667,-0.3291829427083333,0.93115234375,-1.158905029296875,4.309132893880208,5.572713216145833,0.638079047203064,0.19664807617664337,-0.13942237198352814,0.3808393180370331,0.35512447357177734,0.3601638376712799,-0.32121556997299194,-0.01195489801466465,0.2895159423351288,0.7516063451766968,-0.5214788317680359,0.07350997626781464,0.08325298130512238,0.22010909020900726,-0.43347084522247314,0.219650998711586,0.020092664286494255,0.3031570613384247,-0.6699155569076538,-0.17011547088623047
79,838.3431912935697,853.2206326998197,859.1560903695913,839.0560725285457,846.7117544320913,0.076507568359375,-0.33538818359375,0.9294840494791666,-1.7234039306640625,4.209442138671875,6.759033203125,0.6662307381629944,0.19664807617664337,-0.14362718164920807,0.3082503378391266,0.33064574003219604,0.3486517369747162,-0.3059782385826111,-1.5505251212744042e-05,0.2883342504501343,0.7523337602615356,-0.5006804466247559,0.11782298982143402,0.12817572057247162,0.21849556267261505,-0.38787612318992615,0.2338825762271881,0.042660947889089584,0.2869432866573334,-0.6809567213058472,-0.16943638026714325
80,840.4198373647837,853.5305715707632,859.0321232722356,844.4491412823016,853.7785292405349,0.06689453125,-0.3394775390625,0.9296468098958334,-1.7470804850260417,4.221903483072917,4.877370198567708,0.6963323354721069,0.19664807617664337,-0.14362718164920807,0.3100803792476654,0.30457162857055664,0.34165728092193604,-0.2988133430480957,0.011526727117598057,0.28368431329727173,0.73378986120224,-0.46937617659568787,0.1641087532043457,0.18417033553123474,0.20624743402004242,-0.34461209177970886,0.24486255645751953,0.06275634467601776,0.26702675223350525,-0.6827471256256104,-0.15804623067378998
81,834.613916015625,853.7772900390624,858.032236328125,837.3216162109375,848.4586059570313,0.07460530598958333,-0.3383992513020833,0.9296671549479166,-1.7009735107421875,4.7240956624348955,4.4673919677734375,0.6996583342552185,0.19664807617664337,-0.14096662402153015,0.34443017840385437,0.2857002019882202,0.33022603392601013,-0.29820701479911804,0.028179021552205086,0.2824021577835083,0.701586902141571,-0.44189876317977905,0.19333471357822418,0.23947235941886902,0.18344789743423462,-0.31724563241004944,0.2514156401157379,0.07683956623077393,0.249665766954422,-0.6792030930519104,-0.1345200389623642
82,835.1662386380709,853.3755962665265,860.2254145695613,840.8692580003005,850.0591735839844,0.07148234049479167,-0.3371480305989583,0.9305521647135416,-1.5788523356119792,3.27484130859375,5.0505828857421875,0.6965681314468384,0.19664807617664337,-0.1312459409236908,0.3641941249370575,0.2728143334388733,0.30653151869773865,-0.2999860346317291,0.05540340393781662,0.28320831060409546,0.6654319167137146,-0.4288966953754425,0.19802416861057281,0.2842436730861664,0.15276849269866943,-0.3062524199485779,0.25537732243537903,0.08617457002401352,0.23698808252811432,-0.6763221025466919,-0.10623171925544739
83,837.3048729529747,856.6145324707031,860.2254145695613,838.9940866323618,845.7664114145132,0.077728271484375,-0.33917236328125,0.9298095703125,-1.27105712890625,3.732172648111979,5.076751708984375,0.6879388093948364,0.2028592824935913,-0.12849290668964386,0.3815445303916931,0.26107195019721985,0.27300530672073364,-0.29831868410110474,0.08729497343301773,0.28758376836776733,0.6370419263839722,-0.4271372854709625,0.18755283951759338,0.31293347477912903,0.12331166863441467,-0.3039931654930115,0.255905419588089,0.09568747878074646,0.22550618648529053,-0.6756733655929565,-0.08370733261108398
84,841.9385751577524,852.2133037860577,861.3257258488582,846.1693467360276,843.9222318209135,0.07633463541666667,-0.3302205403645833,0.92449951171875,-1.5152994791666667,4.152119954427083,5.522867838541667,0.6600035429000854,0.2228594422340393,-0.12849290668964386,0.38173142075538635,0.25507885217666626,0.22041361033916473,-0.2774337828159332,0.1360105723142624,0.31280088424682617,0.5916011333465576,-0.4320378005504608,0.1782212108373642,0.32369890809059143,0.09181886166334152,-0.3053858280181885,0.24122636020183563,0.12703096866607666,0.18795406818389893,-0.6665146946907043,-0.07605663686990738
85,839.0405719463641,853.1276409442609,858.6291879507212,841.7061133751503,852.8796809269832,0.07450358072916667,-0.3360087076822917,0.93328857421875,-1.8854014078776042,3.971430460611979,6.1845652262369795,0.6307973861694336,0.22403325140476227,-0.12760764360427856,0.38173142075538635,0.26965799927711487,0.20955447852611542,-0.2650057375431061,0.15371723473072052,0.3329417407512665,0.5630999207496643,-0.4300629496574402,0.1932244449853897,0.31718310713768005,0.08004399389028549,-0.3094730079174042,0.2320501059293747,0.1432500034570694,0.1618233174085617,-0.6592691540718079,-0.0860416442155838
86,836.6608032226562,852.7135546875,858.1128149414062,838.9978002929688,842.4791259765625,0.07539876302083333,-0.341064453125,0.9290568033854166,-2.8686014811197915,3.8480631510416665,5.854339599609375,0.5998095273971558,0.22557342052459717,-0.1267603039741516,0.38173142075538635,0.287299782037735,0.20339006185531616,-0.2583765983581543,0.1714731901884079,0.357103168964386,0.5316135287284851,-0.42029231786727905,0.22366449236869812,0.30959489941596985,0.05566424876451492,-0.31624138355255127,0.22410231828689575,0.1529533863067627,0.13728143274784088,-0.6556085348129272,-0.0976012721657753
87,840.3423532339243,852.8951791616587,858.4897132286659,837.9557565542368,843.8912353515625,0.07441202799479167,-0.3413492838541667,0.928619384765625,-2.368901570638021,3.767064412434896,5.2150726318359375,0.5755296349525452,0.21943174302577972,-0.1267603039741516,0.38173142075538635,0.29402607679367065,0.2001015692949295,-0.2639196217060089,0.18903885781764984,0.3776547908782959,0.5032868981361389,-0.40421074628829956,0.26178881525993347,0.30271169543266296,0.008366922847926617,-0.3296010494232178,0.2100711464881897,0.15288802981376648,0.11746377497911453,-0.6560254096984863,-0.10789564251899719
88,833.814094543457,851.8452428181967,864.4536005655924,837.2054392496744,845.9187978108724,0.08280436197916667,-0.3478190104166667,0.9229329427083334,-1.2729263305664062,3.93280029296875,5.3347015380859375,0.5725625157356262,0.19755832850933075,-0.21700623631477356,0.3445650637149811,0.25630930066108704,0.1969396024942398,-0.3230874538421631,0.22231075167655945,0.39164018630981445,0.41433075070381165,-0.3799091577529907,0.32844531536102295,0.2974989116191864,-0.19058257341384888,-0.4001977741718292,0.14338362216949463,0.12446524202823639,0.07353725284337997,-0.6587178111076355,-0.11778430640697479
89,840.9733189174107,854.174083891369,859.5273030598959,843.0838942754837,843.2757713681176,0.07596842447916667,-0.3439737955729167,0.9211629231770834,-0.4984537760416667,3.9826456705729165,5.208841959635417,0.5766321420669556,0.1763100028038025,-0.22754421830177307,0.3445650637149811,0.23167166113853455,0.1912805438041687,-0.36771005392074585,0.2349412888288498,0.3817022144794464,0.32143285870552063,-0.35906487703323364,0.344783753156662,0.2970721423625946,-0.344096839427948,-0.4515911340713501,0.1035001277923584,0.10026539862155914,0.03910506144165993,-0.6604331731796265,-0.115775465965271
90,843.0698829064003,854.5688946063702,859.5745262732872,843.5657912034255,846.8667203463041,0.063720703125,-0.33648681640625,0.9262593587239584,3.18511962890625,8.592096964518229,1.2548573811848958,0.5811258554458618,0.10842171311378479,-0.21326500177383423,0.3447805345058441,0.22016911208629608,0.18255563080310822,-0.4094814360141754,0.24004480242729187,0.3714890480041504,0.17982445657253265,-0.32620057463645935,0.35253286361694336,0.29037049412727356,-0.509543776512146,-0.5010950565338135,0.07080993056297302,0.07354817539453506,0.0009352950728498399,-0.6638355255126953,-0.11067774146795273
91,846.6187626765325,854.0574786846454,860.79881638747,847.2231656588041,849.981684758113,0.08763631184895833,-0.3226420084635417,0.944793701171875,-0.9296162923177084,2.443669637044271,5.2898406982421875,0.5830145478248596,0.003911161795258522,-0.1991172879934311,0.3492318391799927,0.21995840966701508,0.17278102040290833,-0.44152647256851196,0.23682712018489838,0.3721003830432892,-0.011252098716795444,-0.29092007875442505,0.3521600663661957,0.27256131172180176,-0.6481765508651733,-0.552837610244751,0.04367298632860184,0.0474008247256279,-0.031459905207157135,-0.6689862608909607,-0.10494046658277512
92,839.5222854614258,852.718251546224,866.4514617919922,847.278689066569,840.6303431193033,0.078857421875,-0.3215806749131944,0.9359198676215278,2.1549818250868054,3.4642537434895835,6.076151529947917,0.5661265850067139,-0.12047813087701797,-0.22129152715206146,0.3590584099292755,0.22084613144397736,0.1477946937084198,-0.47301357984542847,0.21795041859149933,0.38801050186157227,-0.34805330634117126,-0.27531421184539795,0.3135439157485962,0.2124728262424469,-0.751818060874939,-0.6826090812683105,0.0088174007833004,0.0072725373320281506,-0.06976714730262756,-0.6780559420585632,-0.10601843893527985
93,840.6578735351562,858.0161206054687,863.238095703125,841.3992651367188,852.5362670898437,0.09352620442708333,-0.3230997721354167,0.93560791015625,-3.043060302734375,2.2455342610677085,8.167165120442709,0.5071724653244019,-0.12907318770885468,-0.22464226186275482,0.34085315465927124,0.22192351520061493,0.1303499937057495,-0.47780174016952515,0.2037518173456192,0.40139803290367126,-0.43659117817878723,-0.2813369929790497,0.2980499863624573,0.1877809762954712,-0.7450268864631653,-0.7129877209663391,0.014819658361375332,-0.001477344543673098,-0.0800321102142334,-0.6738218069076538,-0.12053929269313812
94,839.3040301983173,854.6618722768931,859.8224839430588,840.9157527043269,841.148205096905,0.08198038736979167,-0.3250732421875,0.9321695963541666,-3.0094146728515625,5.6487274169921875,5.585174560546875,0.5004769563674927,-0.0738193616271019,-0.23063793778419495,0.2691380977630615,0.23040889203548431,0.11332658678293228,-0.4833275079727173,0.18329088389873505,0.4149916172027588,-0.4571542739868164,-0.27170735597610474,0.29857558012008667,0.17310279607772827,-0.7078676223754883,-0.682867705821991,0.03599149361252785,-0.0008628710638731718,-0.07424565404653549,-0.6596561670303345,-0.14251291751861572
95,841.0242286095253,853.0656480055588,859.6520127516526,844.3561589167668,851.4229407677284,0.07167561848958333,-0.322021484375,0.9387003580729166,-1.7470804850260417,6.544698079427083,4.922231038411458,0.5004769563674927,0.01163714099675417,-0.22643010318279266,0.18408937752246857,0.2460741251707077,0.10155301541090012,-0.4953579604625702,0.16036875545978546,0.4234413504600525,-0.45635706186294556,-0.24272458255290985,0.3102920651435852,0.16559530794620514,-0.6428428292274475,-0.6158962249755859,0.06060760095715523,0.005008642096072435,-0.04100818932056427,-0.6398141980171204,-0.16061672568321228
96,840.3733426607572,853.2826115534856,858.9701303335337,842.4654775766226,849.9196965144231,0.073028564453125,-0.324554443359375,0.9326070149739584,-1.5726216634114583,3.850555419921875,6.766510009765625,0.5004769563674927,0.06557397544384003,-0.22313618659973145,0.11163696646690369,0.2607046067714691,0.0977056547999382,-0.5148247480392456,0.141180619597435,0.42159923911094666,-0.45362672209739685,-0.19831621646881104,0.32444363832473755,0.16035620868206024,-0.5687122941017151,-0.5527211427688599,0.07585147768259048,0.007972405292093754,0.011799857020378113,-0.622263491153717,-0.16407644748687744
97,839.9394179124099,851.8258666992188,858.458726149339,847.7500657301682,850.0591688889724,0.06925455729166667,-0.3243815104166667,0.9344685872395834,-1.4081319173177083,4.53094482421875,6.255594889322917,0.5004769563674927,0.066215880215168,-0.22064904868602753,0.06293092668056488,0.2649555206298828,0.10273738950490952,-0.5372866988182068,0.12690164148807526,0.40531378984451294,-0.44769740104675293,-0.14629225432872772,0.3341536223888397,0.1509658247232437,-0.5055409669876099,-0.5149505734443665,0.07554607093334198,0.0026267152279615402,0.062018949538469315,-0.6120136976242065,-0.1527242213487625
98,838.6841383713943,851.3454519418569,857.4978919396034,835.4452045147235,846.3553114670974,0.06793891059027778,-0.3240288628472222,0.9339667426215278,-1.1090596516927083,5.679050021701389,5.937415228949653,0.5040830969810486,0.051077477633953094,-0.21583755314350128,0.04345886781811714,0.2572946548461914,0.11546450108289719,-0.5576527714729309,0.11394049227237701,0.3746563494205475,-0.4480646848678589,-0.10897503048181534,0.3310263752937317,0.13569307327270508,-0.46142756938934326,-0.5017790794372559,0.06329658627510071,-0.007533256895840168,0.09466706216335297,-0.6095435619354248,-0.1342012584209442
99,839.4383392333984,853.0540364583334,857.9899291992188,841.1675821940104,842.3427937825521,0.06502278645833333,-0.32177734375,0.9357503255208334,-0.8124796549479166,4.027506510416667,5.894215901692708,0.5865033268928528,0.00025403936160728335,-0.1775708943605423,0.13671086728572845,0.2569983899593353,0.14200805127620697,-0.5843746662139893,0.10535480082035065,0.2845418453216553,-0.5021325945854187,-0.09301548451185226,0.3293100893497467,0.11103321611881256,-0.42564135789871216,-0.5121644139289856,0.05540597066283226,0.01876554638147354,0.11878221482038498,-0.6190004944801331,-0.09713280946016312
100,839.7844519981971,855.731196476863,856.0876300518329,834.6858262282151,852.5387432391827,0.06382242838541667,-0.320556640625,0.9373677571614584,-1.4654541015625,3.9776611328125,6.123504638671875,0.7293588519096375,-0.002993002999573946,-0.13495580852031708,0.24956433475017548,0.2913375198841095,0.14523273706436157,-0.5839077234268188,0.13050702214241028,0.240362286567688,-0.5292659401893616,-0.09683618694543839,0.3825031518936157,0.13359832763671875,-0.4241882562637329,-0.5212640762329102,0.07950448244810104,0.08681551367044449,0.12591709196567535,-0.6279003024101257,-0.08423873037099838
101,843.8292518028846,855.2507723294772,858.7686673677885,844.1082035945012,842.2950110802284,0.0672607421875,-0.31787109375,0.93658447265625,-1.2286885579427083,3.805694580078125,5.363362630208333,0.8202075362205505,0.003019662806764245,-0.129524365067482,0.34348171949386597,0.3381196856498718,0.14394669234752655,-0.5680514574050903,0.17024366557598114,0.2066192626953125,-0.5354492664337158,-0.10046738386154175,0.4662316143512726,0.1815931349992752,-0.4283286929130554,-0.5263654589653015,0.12093807011842728,0.17751729488372803,0.1316746175289154,-0.637162446975708,-0.0791420117020607
102,841.3961674616887,852.5232450045072,858.396728515625,848.2924734262319,841.9075857309194,0.058929443359375,-0.3209431966145833,0.9350382486979166,-1.4417775472005208,4.3004099527994795,5.7658640543619795,0.8368521332740784,0.02959253638982773,-0.15825599431991577,0.40699177980422974,0.3764350414276123,0.14428910613059998,-0.541013777256012,0.21085254848003387,0.19118094444274902,-0.5290339589118958,-0.10955055058002472,0.5497493147850037,0.23285529017448425,-0.4327583312988281,-0.5226189494132996,0.16961902379989624,0.2648991048336029,0.13492438197135925,-0.6423035264015198,-0.08175603300333023
103,839.0095825195312,852.3682767427885,860.1944157527043,843.3333341158353,846.3088167630709,0.059051513671875,-0.3197021484375,0.9370524088541666,1.2810262044270833,6.746571858723958,4.5371754964192705,0.8385938405990601,0.03623206168413162,-0.1632157862186432,0.4453229010105133,0.3976745009422302,0.14807569980621338,-0.5138847231864929,0.24595238268375397,0.17985479533672333,-0.515705406665802,-0.12602993845939636,0.6080971956253052,0.2691548466682434,-0.4345678985118866,-0.5080211162567139,0.21400588750839233,0.33339405059814453,0.13706952333450317,-0.640329897403717,-0.08883389085531235
104,829.1687786395734,850.663564828726,856.3665865384615,833.9109590970553,843.3643305851863,0.061269124348958336,-0.3125101725260417,0.94146728515625,-2.638066609700521,4.0785980224609375,5.6387583414713545,0.8385938405990601,0.03623206168413162,-0.1632157862186432,0.4627511501312256,0.4077938199043274,0.15033431351184845,-0.4966696500778198,0.27574533224105835,0.165166974067688,-0.49291297793388367,-0.15358050167560577,0.6409397721290588,0.2871832847595215,-0.43401530385017395,-0.4878435730934143,0.2428814321756363,0.380908727645874,0.14042073488235474,-0.6337928771972656,-0.09668471664190292
105,863.2163954514724,857.5908766526443,859.7759939340444,864.8126197228065,848.5559293306791,0.06618245442708333,-0.3218994140625,0.9388224283854166,-2.7539571126302085,3.4293619791666665,7.095489501953125,0.8385938405990601,0.03623206168413162,-0.1662832796573639,0.5124838948249817,0.4211190640926361,0.14566625654697418,-0.49239280819892883,0.30259227752685547,0.158983513712883,-0.4681757986545563,-0.1834784597158432,0.6684607267379761,0.2986774444580078,-0.43180012702941895,-0.4694945216178894,0.2544324994087219,0.4124913215637207,0.14370319247245789,-0.6275428533554077,-0.0991550087928772
106,858.1797673152043,850.9735130896935,859.5280362642728,863.7433072603666,851.2524695763221,0.060384114583333336,-0.3204142252604167,0.9358011881510416,-2.847417195638021,4.2081960042317705,6.791432698567708,0.8385938405990601,0.03623206168413162,-0.1662832796573639,0.536487877368927,0.45050936937332153,0.1335407793521881,-0.4896753132343292,0.33170124888420105,0.23175068199634552,-0.4355776607990265,-0.2049001306295395,0.7025982141494751,0.3184465169906616,-0.42831867933273315,-0.4544057548046112,0.260895311832428,0.4350648820400238,0.142849400639534,-0.6208797097206116,-0.08491476625204086
107,837.5218411959135,845.7044278658353,859.0476144643931,831.3074106069712,839.1800490159255,0.053934733072916664,-0.319427490234375,0.9300638834635416,-0.6791432698567709,3.470484415690104,6.6381581624348955,0.8445436954498291,0.038987789303064346,-0.15606287121772766,0.5602498650550842,0.561882734298706,0.09847418963909149,-0.3738780915737152,0.45047715306282043,0.6878945231437683,-0.3254893124103546,-0.22090880572795868,0.8916382193565369,0.4222012460231781,-0.3932991027832031,-0.39191123843193054,0.3188040256500244,0.47422710061073303,0.10843557119369507,-0.5623650550842285,0.06317552179098129
108,835.6156733586238,847.579599233774,856.9089895395132,842.1090393066406,830.7030123197115,0.054555257161458336,-0.3198445638020833,0.9386698404947916,-2.100982666015625,4.498545328776042,4.239349365234375,0.8473950028419495,0.05730944126844406,-0.1418057531118393,0.5921030044555664,0.6178878545761108,0.07678335905075073,-0.27272292971611023,0.5353227853775024,0.8908159136772156,-0.2376510202884674,-0.2251351773738861,1.023468017578125,0.4882175028324127,-0.3578002452850342,-0.3393026888370514,0.36219626665115356,0.4930499196052551,0.06330589950084686,-0.5119263529777527,0.22735562920570374
109,829.4787292480469,851.4384343073918,856.1806100698618,830.0056387094351,837.2583805964543,0.057535807291666664,-0.3219502766927083,0.9346720377604166,-1.9863382975260417,3.2848103841145835,4.9060312906901045,0.8473950028419495,0.03942890837788582,-0.1418057531118393,0.6555247902870178,0.6561151742935181,0.049636222422122955,-0.1922989934682846,0.6118027567863464,1.0295592546463013,-0.14524543285369873,-0.2461080253124237,1.1353662014007568,0.5411761403083801,-0.3238789737224579,-0.2912920415401459,0.3951219916343689,0.5079241394996643,-0.0005392321618273854,-0.4683993458747864,0.4178033769130707
110,827.1386343149038,849.1603323129507,858.2107684795673,826.7356989933894,841.8765869140625,0.0626220703125,-0.32470703125,0.936065673828125,-0.043614705403645836,3.349609375,3.087921142578125,0.8473950028419495,0.0019391444511711597,-0.1418057531118393,0.7256837487220764,0.6766572594642639,0.01605394296348095,-0.14705859124660492,0.667862594127655,1.1133973598480225,-0.07115470618009567,-0.29181969165802,1.2139254808425903,0.5745084285736084,-0.3016799986362457,-0.2591445744037628,0.41292834281921387,0.5175122022628784,-0.06896666437387466,-0.44082602858543396,0.5803080201148987
111,848.7728928786057,854.7548569899338,856.2426030085637,843.2403517503005,848.261486346905,0.06269327799479167,-0.319732666015625,0.9376322428385416,-2.7414957682291665,4.481099446614583,6.392669677734375,0.8473950028419495,-0.029740938916802406,-0.14505481719970703,0.7518065571784973,0.7007800936698914,-0.05873351916670799,-0.12109611183404922,0.722054123878479,1.178739070892334,0.005600875709205866,-0.3519981801509857,1.2783622741699219,0.5966925024986267,-0.299007773399353,-0.23762094974517822,0.42896148562431335,0.5237186551094055,-0.1553312987089157,-0.410675972700119,0.7489655613899231
112,843.7207618126503,853.7785268930288,858.7686673677885,837.3668658916766,850.6945612980769,0.06392415364583333,-0.3216552734375,0.93670654296875,-2.1259053548177085,4.162089029947917,4.857432047526042,0.8473950028419495,-0.028807155787944794,-0.17949192225933075,0.7503335475921631,0.7130808234214783,-0.08913404494524002,-0.11275634169578552,0.7299348711967468,1.2012113332748413,0.026765001937747,-0.33697155117988586,1.2900952100753784,0.5958248376846313,-0.30765390396118164,-0.23113420605659485,0.43144500255584717,0.5167319178581238,-0.1804545670747757,-0.388999342918396,0.774371325969696
113,843.7052706204928,856.3045982947716,856.5680518517128,834.5308509239784,847.4866121732272,0.06120469835069445,-0.3259209526909722,0.9357977973090278,-2.190704345703125,4.412146674262153,6.371900770399305,0.8473950028419495,-0.025661034509539604,-0.1815319061279297,0.7565526366233826,0.7213892936706543,-0.11097952723503113,-0.10555354505777359,0.7283077239990234,1.2229785919189453,0.040757082402706146,-0.317658394575119,1.2942134141921997,0.5862880349159241,-0.3151041567325592,-0.22084148228168488,0.42763638496398926,0.4974946081638336,-0.20935148000717163,-0.3630756139755249,0.7874165177345276
114,842.3105069673978,852.6162297175481,857.0174724872296,836.5145099346454,851.2989548903245,0.06614176432291667,-0.3226725260416667,0.93707275390625,-0.7651265462239584,4.169565836588542,7.407023111979167,0.800807535648346,-0.023056864738464355,-0.17764200270175934,0.7651947140693665,0.7250224351882935,-0.12680596113204956,-0.10399086773395538,0.7210220694541931,1.246037244796753,0.05728984251618385,-0.3045225739479065,1.2937389612197876,0.5702423453330994,-0.31637290120124817,-0.2093622088432312,0.4182073473930359,0.4659656584262848,-0.2418002188205719,-0.3408966064453125,0.8014042377471924
115,833.2445725661057,853.5305692232572,858.5052138108474,834.7323185847356,848.974362886869,0.048044840494791664,-0.32476806640625,0.9329630533854166,-1.0131072998046875,5.330963134765625,7.2387949625651045,0.6917392015457153,-0.02300933748483658,-0.18567393720149994,0.7651947140693665,0.7272629141807556,-0.1416758894920349,-0.10907742381095886,0.7134382128715515,1.2678838968276978,0.07808580249547958,-0.2971649169921875,1.291736125946045,0.5565309524536133,-0.30928897857666016,-0.2024720460176468,0.40658193826675415,0.4266221821308136,-0.27287957072257996,-0.3282930850982666,0.8182810544967651
116,834.8407921424279,852.8951815091647,860.2719069260818,839.8619314340444,849.268803523137,0.057474772135416664,-0.3185017903645833,0.933837890625,-1.054229736328125,4.959615071614583,5.393269856770833,0.5913479924201965,-0.0569499209523201,-0.19986537098884583,0.7651947140693665,0.7324268221855164,-0.15912288427352905,-0.11670240014791489,0.709148108959198,1.2850663661956787,0.0931231901049614,-0.2962614595890045,1.28900945186615,0.5533025860786438,-0.29389360547065735,-0.2038922756910324,0.3958088159561157,0.3865831792354584,-0.3003489673137665,-0.32434695959091187,0.8358573913574219
117,842.4976286711516,853.9736780237268,860.0176414207176,848.1237318250868,854.6303123191551,0.05731201171875,-0.321502685546875,0.9390157063802084,-1.5427144368489583,4.5620981852213545,5.612589518229167,0.6148840188980103,-0.1155809760093689,-0.2029133439064026,0.7651947140693665,0.7416437864303589,-0.17680886387825012,-0.12129505723714828,0.707348644733429,1.295384168624878,0.09514735639095306,-0.291391521692276,1.2857736349105835,0.5581672787666321,-0.2747412919998169,-0.21208497881889343,0.38972222805023193,0.35180893540382385,-0.32517796754837036,-0.3247107267379761,0.8508186340332031
118,846.4947838416466,853.9025104229266,859.4350515512319,846.5412761981671,857.0174630972056,0.050557454427083336,-0.32373046875,0.93768310546875,-1.2349192301432292,4.9508921305338545,7.0967356363932295,0.6389506459236145,-0.151173397898674,-0.1964249312877655,0.7630289196968079,0.7509832978248596,-0.18775337934494019,-0.12108857184648514,0.7048988938331604,1.300302505493164,0.08902370929718018,-0.28286680579185486,1.2819300889968872,0.5587870478630066,-0.2578331530094147,-0.2241080403327942,0.39282137155532837,0.3246808350086212,-0.3444499671459198,-0.32755398750305176,0.860430121421814
119,841.861083984375,853.3755986140325,859.4505474384015,850.8030325082632,850.2451383150541,0.036712646484375,-0.3235677083333333,0.9355570475260416,-1.3022104899088542,5.296071370442708,6.873677571614583,0.6389506459236145,-0.13760317862033844,-0.1964249312877655,0.7455400824546814,0.7528769969940186,-0.18505209684371948,-0.12183941900730133,0.6986172199249268,1.2984766960144043,0.07655828446149826,-0.27668553590774536,1.2786951065063477,0.5436608195304871,-0.24894513189792633,-0.23864616453647614,0.4043312072753906,0.3034253716468811,-0.35243919491767883,-0.33592984080314636,0.8633161187171936
120,843.4573082557091,852.9881685697115,860.8918057955228,846.1383479191707,848.0135216346154,0.052775065104166664,-0.31304931640625,0.9425455729166666,0.3838094075520833,5.213826497395833,2.10845947265625,0.6357353329658508,-0.06231269985437393,-0.1964249312877655,0.7374548316001892,0.7395498156547546,-0.16831785440444946,-0.13794223964214325,0.6830633282661438,1.279477596282959,0.05862778052687645,-0.2815519869327545,1.2656407356262207,0.5021805763244629,-0.255982369184494,-0.26139047741889954,0.409827321767807,0.28246262669563293,-0.3493043780326843,-0.35745230317115784,0.8587313294410706
121,840.9777409480168,852.8486797626202,857.2499319223257,840.2958538348859,843.224851168119,0.046498616536458336,-0.3230692545572917,0.9439697265625,-2.8087870279947915,3.4879302978515625,7.5029754638671875,0.631227970123291,0.010011984035372734,-0.20344917476177216,0.7852601408958435,0.7089404463768005,-0.14429202675819397,-0.18412157893180847,0.6575273275375366,1.2315696477890015,0.031528279185295105,-0.30575045943260193,1.2287042140960693,0.4292871654033661,-0.2882133722305298,-0.30302849411964417,0.39724478125572205,0.25695064663887024,-0.34243348240852356,-0.3978327214717865,0.8447511792182922
122,840.4353309044471,853.9025057279147,856.9399836613582,839.7224567119891,851.5934143066406,0.042449951171875,-0.320770263671875,0.9289652506510416,-1.8829091389973958,4.720357259114583,6.225687662760417,0.6493139863014221,0.01229878794401884,-0.21049073338508606,0.8536947965621948,0.670536994934082,-0.12099602818489075,-0.2627318799495697,0.631019115447998,1.153101921081543,-0.01542751956731081,-0.3425983786582947,1.160183310508728,0.3335210382938385,-0.34648647904396057,-0.3703818619251251,0.3671169579029083,0.2291942834854126,-0.34120407700538635,-0.4548918902873993,0.8129317760467529
123,838.482666015625,852.4457608736478,858.7376708984375,840.0943908691406,843.8602388822115,0.040445963541666664,-0.3185221354166667,0.9333292643229166,-1.906585693359375,4.822540283203125,5.223795572916667,0.7000765800476074,0.008629931136965752,-0.23003599047660828,0.8928636908531189,0.6404500007629395,-0.10401486605405807,-0.3534092605113983,0.6166203022003174,1.055143117904663,-0.08579298853874207,-0.3766225576400757,1.0629914999008179,0.24320363998413086,-0.41917744278907776,-0.4535734951496124,0.33267855644226074,0.20718573033809662,-0.35027173161506653,-0.5147059559822083,0.752275824546814
124,843.9687194824219,855.1887864332932,855.4677358774038,843.6587735689603,847.2386568509615,0.037587483723958336,-0.3257954915364583,0.9391276041666666,-1.9850921630859375,3.596343994140625,5.5328369140625,0.7382351756095886,0.03426475077867508,-0.22445474565029144,0.8914234638214111,0.6268693804740906,-0.09573572129011154,-0.41897159814834595,0.616020679473877,0.9587503671646118,-0.17085357010364532,-0.3904338777065277,0.9540499448776245,0.19131416082382202,-0.4822811484336853,-0.5232897996902466,0.3091133236885071,0.195081427693367,-0.36780890822410583,-0.5599719882011414,0.6603987812995911
125,842.9613976111779,855.6537029559796,858.9391362116887,844.3716618464543,851.2679631159856,0.04278564453125,-0.3275349934895833,0.9344685872395834,-2.0224761962890625,4.229380289713542,5.136566162109375,0.7498229146003723,0.038380250334739685,-0.21977384388446808,0.8660504817962646,0.6218782663345337,-0.09556388854980469,-0.44212067127227783,0.6179796457290649,0.8908355236053467,-0.24743478000164032,-0.3899068534374237,0.868582010269165,0.18233610689640045,-0.5151978731155396,-0.5553635358810425,0.29429346323013306,0.1890745311975479,-0.3845963180065155,-0.5845124125480652,0.5537737011909485
126,844.588618351863,856.0721271221454,858.2262667142428,840.2183697040265,851.0509925255409,0.042134602864583336,-0.3283487955729167,0.9319559733072916,-1.9975535074869792,4.0088144938151045,4.41131591796875,0.7498229146003723,0.038380250334739685,-0.21963736414909363,0.8427731394767761,0.6115788817405701,-0.09961723536252975,-0.44237008690834045,0.6119155883789062,0.8468804359436035,-0.3127082586288452,-0.3919728100299835,0.8150478005409241,0.18891018629074097,-0.5186502933502197,-0.5565804243087769,0.27780842781066895,0.18351399898529053,-0.3897620439529419,-0.6008051037788391,0.4656510055065155
127,839.0715684157151,856.4905630258413,862.6120042067307,844.1236947866587,847.9825275127704,0.0400390625,-0.3297932942708333,0.9394734700520834,-1.6199747721354167,4.211934407552083,5.325978597005208,0.7512198686599731,0.038380250334739685,-0.21780328452587128,0.8210382461547852,0.5896779298782349,-0.10193926841020584,-0.4415090084075928,0.599013090133667,0.7962613701820374,-0.3645004332065582,-0.4038481116294861,0.7669793963432312,0.19037438929080963,-0.5070513486862183,-0.5487048625946045,0.254570335149765,0.17442773282527924,-0.3762986361980438,-0.6228268146514893,0.41389092803001404
128,840.6417529296875,850.666669921875,858.0644677734375,838.7238061523437,849.1194165039062,0.049479166666666664,-0.3217875162760417,0.9373982747395834,-1.6885121663411458,2.8835550944010415,4.952138264973958,0.7817316651344299,0.038380250334739685,-0.21780328452587128,0.8174083232879639,0.5580621957778931,-0.1001993864774704,-0.4420086145401001,0.5859877467155457,0.7375832200050354,-0.40077710151672363,-0.4205417037010193,0.7164000272750854,0.18334844708442688,-0.48426586389541626,-0.5385545492172241,0.22919130325317383,0.15860630571842194,-0.3458828032016754,-0.6525409817695618,0.3797959089279175
129,840.7762756347656,854.8633469801682,856.4595689039963,841.7216092623197,845.8438931978666,0.048940022786458336,-0.3350321451822917,0.9317118326822916,-2.7938334147135415,3.1901041666666665,4.14215087890625,0.8179340958595276,0.04289153963327408,-0.23513349890708923,0.8130854368209839,0.5208945870399475,-0.09696658700704575,-0.4417653977870941,0.5746586918830872,0.6599716544151306,-0.4395080506801605,-0.4269603490829468,0.6596890091896057,0.16551367938518524,-0.44631460309028625,-0.5162377953529358,0.20953992009162903,0.13245511054992676,-0.3080183267593384,-0.6809440851211548,0.3385164737701416
130,840.5438138521635,851.4384366548978,857.3739060621995,839.1025648850662,848.1839951735276,0.055867513020833336,-0.3340047200520833,0.9327596028645834,-1.7146809895833333,4.712880452473958,3.671112060546875,0.8317483067512512,0.043144334107637405,-0.26033324003219604,0.8094612956047058,0.48217394948005676,-0.09553278237581253,-0.4405817985534668,0.5638710856437683,0.5637047290802002,-0.4732474088668823,-0.4028480052947998,0.5970994234085083,0.1306351274251938,-0.3929463326931,-0.47687411308288574,0.2050897479057312,0.09696592390537262,-0.2747916877269745,-0.69916832447052,0.28352218866348267
131,840.822767991286,851.8723614032452,858.1797602726863,840.3268503042368,851.5314260629507,0.048583984375,-0.3294576009114583,0.9324747721354166,-1.4019012451171875,4.538421630859375,5.375823974609375,0.831287145614624,0.043552055954933167,-0.2809327244758606,0.8256998062133789,0.44309037923812866,-0.09530149400234222,-0.4412086009979248,0.552354633808136,0.46086087822914124,-0.4744683504104614,-0.3554142415523529,0.5441884994506836,0.07761134952306747,-0.33530527353286743,-0.4290913939476013,0.21788419783115387,0.05809178203344345,-0.2547386586666107,-0.7116948366165161,0.21714997291564941
132,841.8765869140625,853.8095280573918,858.040294940655,845.7199120154747,852.0583284818209,0.045928955078125,-0.3280131022135417,0.9347432454427084,-2.2019195556640625,3.9141082763671875,5.2337646484375,0.8303967118263245,0.043552055954933167,-0.22550728917121887,0.8481863141059875,0.4014797806739807,-0.09367610514163971,-0.4449853301048279,0.5415543913841248,0.3718191087245941,-0.4441153109073639,-0.3120515048503876,0.5124547481536865,0.016842113807797432,-0.2855551242828369,-0.3842589259147644,0.24275536835193634,0.02310350351035595,-0.2487425059080124,-0.7285239100456238,0.14930184185504913
133,842.2033784285835,854.3000461744225,856.6563123620075,840.6617352029551,848.4225185228431,0.054652622767857144,-0.33517892020089285,0.9340733119419643,-2.564544677734375,4.3178558349609375,4.303836822509766,0.7996810972690582,0.04595788195729256,-0.14736972004175186,0.8543421924114227,0.33481284976005554,-0.09037824720144272,-0.44956710934638977,0.5322371125221252,0.2024710774421692,-0.39504897594451904,-0.29421311616897583,0.4461534321308136,-0.04349947348237038,-0.2395564243197441,-0.32773230969905853,0.2667105197906494,-0.012572117964737117,-0.2539485692977905,-0.7581759691238403,0.08001396059989929
134,835.8871875,849.4256396484375,862.2871752929688,845.3479833984375,849.6029321289062,0.053019205729166664,-0.3389078776041667,0.93048095703125,-1.7595418294270833,4.8586781819661455,5.2399953206380205,0.7625209093093872,0.05109516903758049,-0.14377711713314056,0.8581366539001465,0.28423529863357544,-0.09614033997058868,-0.4459701478481293,0.5265823602676392,0.07311594486236572,-0.38983863592147827,-0.30431824922561646,0.38043278455734253,-0.051248699426651,-0.2147808074951172,-0.2786715030670166,0.25549107789993286,-0.03255355358123779,-0.25915446877479553,-0.7691889405250549,0.05678147077560425
135,833.4373583984375,857.7743627929688,854.6798510742187,832.8087939453125,848.7487158203126,0.0452880859375,-0.3407999674479167,0.9281005859375,-1.1688741048177083,4.3963623046875,6.57958984375,0.7562201619148254,0.04496556147933006,-0.14377711713314056,0.8818646669387817,0.2682526707649231,-0.10717970877885818,-0.4411809742450714,0.5111086964607239,-0.052870653569698334,-0.3859100639820099,-0.3083465099334717,0.3016020357608795,-0.028581298887729645,-0.20149914920330048,-0.2518211007118225,0.24354027211666107,-0.03882552683353424,-0.2584020495414734,-0.7612202167510986,0.05500135198235512
136,855.5723444620768,861.9520746866862,855.3540852864584,856.8986638387045,848.7896779378256,0.044209798177083336,-0.33221435546875,0.9281819661458334,-0.097198486328125,3.9776611328125,5.211334228515625,0.7462902665138245,0.036910414695739746,-0.13340027630329132,1.0298008918762207,0.2374345064163208,-0.11116818338632584,-0.4385131299495697,0.3904939889907837,-0.12665385007858276,-0.3415762484073639,-0.2354314774274826,0.16275638341903687,0.005327589809894562,-0.13836097717285156,-0.1974903643131256,0.30506432056427,-0.051817696541547775,-0.23715928196907043,-0.740999698638916,0.018841348588466644
137,850.9245434570313,858.209521484375,859.8051293945313,850.0058569335938,846.895234375,0.050974527994791664,-0.3285319010416667,0.935272216796875,0.4274241129557292,3.737157185872396,6.0773976643880205,0.7474188208580017,0.054981376975774765,-0.1045888289809227,1.095017910003662,0.22640620172023773,-0.08274928480386734,-0.44023051857948303,0.2929738163948059,0.027623753994703293,-0.2781655490398407,-0.15477487444877625,0.1861739307641983,0.02467217855155468,-0.08179200440645218,-0.1601382941007614,0.3759915828704834,-0.04905196279287338,-0.2052922546863556,-0.7311579585075378,-0.010546453297138214
138,839.4744990422175,850.2141418457031,862.7669748159556,844.945054274339,844.9605525090144,0.049845377604166664,-0.3222859700520833,0.9353230794270834,0.6031290690104166,3.880462646484375,6.078643798828125,0.7386423349380493,0.05682075396180153,-0.06354694068431854,1.141316533088684,0.22980749607086182,-0.0197589248418808,-0.44062116742134094,0.21993589401245117,0.24235646426677704,-0.19758114218711853,-0.06488596647977829,0.3093498647212982,0.07158456742763519,-0.02230672910809517,-0.12371210008859634,0.44703060388565063,-0.03249053657054901,-0.15905062854290009,-0.7224537134170532,-0.02857339382171631
139,845.541396484375,855.0505493164062,860.0630004882812,845.8476245117188,842.6241772460937,0.05023193359375,-0.3170267740885417,0.9416707356770834,0.4872385660807292,3.6075592041015625,5.814463297526042,0.7416895031929016,0.061129529029130936,-0.06264957040548325,1.1481115818023682,0.2451365441083908,0.07065743952989578,-0.4378508925437927,0.20423324406147003,0.43764713406562805,-0.10771208256483078,0.019018758088350296,0.4621984660625458,0.13513532280921936,0.02758702076971531,-0.09865406900644302,0.5002490282058716,-0.009375401772558689,-0.11046712100505829,-0.7192493677139282,-0.029782691970467567
140,846.8512244591346,853.685546875,860.4268775353065,846.0918555626503,846.2623267540565,0.049896240234375,-0.3154195149739583,0.9386189778645834,-1.2660725911458333,3.542760213216146,6.2493642171223955,0.7285112738609314,0.06305241584777832,-0.06264957040548325,1.1481115818023682,0.2631915807723999,0.16237282752990723,-0.4312869906425476,0.22252157330513,0.5805923938751221,-0.015047532506287098,0.08318684250116348,0.5821791291236877,0.1899510622024536,0.06296061724424362,-0.0859047919511795,0.5302489995956421,0.00802250113338232,-0.07095550745725632,-0.7248102426528931,-0.023792024701833725
141,844.2166794996995,859.4195603590745,861.6046752929688,845.5804443359375,849.8112135667068,0.04862060546875,-0.31810302734375,0.93846435546875,-1.256103515625,4.2206573486328125,5.410715738932292,0.7187283635139465,0.06628470122814178,-0.06264957040548325,1.1481115818023682,0.27765247225761414,0.23294126987457275,-0.4232218265533447,0.2365802824497223,0.6709523797035217,0.06338000297546387,0.12656022608280182,0.6529849171638489,0.22422587871551514,0.08483349531888962,-0.07965735346078873,0.5409566164016724,0.016552748158574104,-0.04270942136645317,-0.7346715927124023,-0.021536894142627716
142,831.2609229454628,854.692868746244,859.404052734375,833.7869802621694,842.3570040189303,0.048563639322916664,-0.3203531901041667,0.9377543131510416,-1.3582865397135417,4.3427785237630205,5.8057403564453125,0.7081103324890137,0.04304192215204239,-0.06264957040548325,1.1481115818023682,0.2864666283130646,0.27593764662742615,-0.4154287278652191,0.23625467717647552,0.7223682999610901,0.11928440630435944,0.14642751216888428,0.6853086352348328,0.24476182460784912,0.09470865875482559,-0.07662679255008698,0.5397011041641235,0.02280261553823948,-0.02025693468749523,-0.7416527271270752,-0.024246836081147194
143,837.6148212139423,851.9498502291166,858.4122267503005,835.9101186899038,842.6979464017428,0.052225748697916664,-0.3172607421875,0.9374186197916666,-0.8648173014322916,4.324086507161458,5.806986490885417,0.698636531829834,0.029857898131012917,-0.06264957040548325,1.1481115818023682,0.2896822988986969,0.29898160696029663,-0.4082503318786621,0.22789116203784943,0.7463902235031128,0.14611637592315674,0.14874400198459625,0.698215663433075,0.2600054442882538,0.09167733788490295,-0.07739188522100449,0.5302848219871521,0.03309938684105873,0.003461548127233982,-0.7426218390464783,-0.027062684297561646
144,843.224858210637,854.398428109976,857.1259530874399,843.7672518216647,852.2288020207332,0.046315511067708336,-0.3159383138020833,0.9362589518229166,-0.9134165445963541,4.383900960286458,5.253702799479167,0.7159439921379089,0.03417164087295532,-0.06264957040548325,1.1481115818023682,0.2881021499633789,0.3149663507938385,-0.40144792199134827,0.22060006856918335,0.7625294923782349,0.14879357814788818,0.13762040436267853,0.7081800699234009,0.27429434657096863,0.07673577219247818,-0.08244181424379349,0.5148171782493591,0.04604199156165123,0.034884002059698105,-0.7392370700836182,-0.02754226326942444
145,838.8546072152944,851.7173884465144,858.7841632549579,843.6587782639724,844.7745807354266,0.051778157552083336,-0.31396484375,0.9446614583333334,-0.8398946126302084,4.540913899739583,4.984537760416667,0.7445616722106934,0.03447309881448746,-0.06253787130117416,1.1481115818023682,0.2849828600883484,0.33172133564949036,-0.395548015832901,0.21775272488594055,0.7843508720397949,0.1447465717792511,0.12242618203163147,0.7289246916770935,0.2894044518470764,0.05397150665521622,-0.09101910144090652,0.4967489540576935,0.05619603022933006,0.07553458958864212,-0.7326201796531677,-0.027122458443045616
146,834.8253079927885,854.9253281813401,862.1160865196815,838.3586871807391,846.9132080078125,0.047149658203125,-0.313201904296875,0.9401652018229166,-1.4841461181640625,4.3253326416015625,5.497945149739583,0.7364851236343384,0.05348728597164154,-0.07819955050945282,1.147756814956665,0.28196191787719727,0.3496365547180176,-0.39026495814323425,0.21699939668178558,0.8089829087257385,0.14558741450309753,0.1132132038474083,0.754880964756012,0.3041944205760956,0.030835866928100586,-0.10109274834394455,0.4800674617290497,0.059551436454057693,0.11925623565912247,-0.7220369577407837,-0.028631368651986122
147,843.2093576284556,853.6235562838041,858.9546344463641,843.7052729679988,846.4018014761118,0.046213785807291664,-0.3166605631510417,0.941070556640625,-2.0984903971354165,4.129689534505208,5.747172037760417,0.7357540726661682,0.08728981763124466,-0.1495746374130249,1.147756814956665,0.2761878967285156,0.3668942451477051,-0.38370320200920105,0.21590670943260193,0.829784095287323,0.149074524641037,0.11544714123010635,0.7772691249847412,0.3149201273918152,0.013881954364478588,-0.1114170029759407,0.4674513041973114,0.05590217933058739,0.15588772296905518,-0.7077358961105347,-0.032698534429073334
148,846.0608614408053,856.6145442082332,861.1087646484375,846.0763549804688,848.3544663649338,0.047831217447916664,-0.3230997721354167,0.9368896484375,-1.5140533447265625,4.1458892822265625,5.605112711588542,0.7357540726661682,0.0993155688047409,-0.1682972013950348,1.147756814956665,0.2637013792991638,0.38257795572280884,-0.37448960542678833,0.2142319530248642,0.8452869653701782,0.15290802717208862,0.12530800700187683,0.7909702062606812,0.315704345703125,0.004567783325910568,-0.1222902312874794,0.4563443958759308,0.046845369040966034,0.18053734302520752,-0.692078709602356,-0.03724060207605362
149,841.2101980356069,855.4677382249099,856.1651188777043,840.202871469351,850.0901583158053,0.047139485677083336,-0.3197224934895833,0.93548583984375,-0.7476806640625,4.3365478515625,5.246225992838542,0.7407917976379395,0.12527713179588318,-0.1682972013950348,1.147756814956665,0.24403712153434753,0.3965625464916229,-0.3623654842376709,0.2143116444349289,0.856480598449707,0.1550714671611786,0.13745838403701782,0.7970932722091675,0.305679589509964,-0.0014225845225155354,-0.1342194825410843,0.4415614604949951,0.036241549998521805,0.19629539549350739,-0.6782013177871704,-0.03808468207716942
150,843.3178335336538,854.3829275277944,857.3274184006912,844.0927006648137,845.7974055363582,0.045125325520833336,-0.314605712890625,0.9376322428385416,-0.46356201171875,4.513498942057292,5.520375569661458,0.7469459772109985,0.16022589802742004,-0.1682972013950348,1.1424669027328491,0.22097161412239075,0.407194584608078,-0.34975606203079224,0.22140373289585114,0.8670105338096619,0.1534099280834198,0.14372862875461578,0.8008320927619934,0.29016566276550293,-0.012906619347631931,-0.14806175231933594,0.4157719016075134,0.028146836906671524,0.20871829986572266,-0.6669158339500427,-0.033310580998659134
151,838.4981689453125,852.9726750300481,858.691176194411,840.0633943997897,851.4694190392128,0.049102783203125,-0.3171895345052083,0.9401753743489584,-1.263580322265625,3.96270751953125,5.4294077555338545,0.7513836622238159,0.18109086155891418,-0.16869734227657318,1.1326929330825806,0.1943962275981903,0.4113728106021881,-0.3397018313407898,0.23720884323120117,0.8743135333061218,0.14351540803909302,0.13447821140289307,0.8017036318778992,0.2738220989704132,-0.042167291045188904,-0.16839861869812012,0.37080371379852295,0.021999690681695938,0.2187853902578354,-0.6600610017776489,-0.027054496109485626
152,838.2502206655649,854.9253305288462,859.4815462552584,840.6058044433594,850.2761394794171,0.047810872395833336,-0.3093465169270833,0.942626953125,-0.04486083984375,4.239349365234375,6.522267659505208,0.7513836622238159,0.18018774688243866,-0.16856597363948822,1.0998493432998657,0.15882562100887299,0.40598395466804504,-0.33466026186943054,0.2539921700954437,0.8671979904174805,0.12105613946914673,0.10291799902915955,0.786702573299408,0.24872484803199768,-0.09475461393594742,-0.19790612161159515,0.29523593187332153,0.011180108413100243,0.22162260115146637,-0.660910964012146,-0.02629421092569828
153,841.9540733924279,855.4677358774038,859.729496882512,846.6497614933894,841.4581533578726,0.041937934027777776,-0.3085191514756944,0.9419420030381944,-0.3082105848524306,3.9469231499565973,6.248948838975695,0.7513836622238159,0.18018774688243866,-0.17400646209716797,1.009925127029419,0.11155129224061966,0.38698744773864746,-0.3372974395751953,0.25993698835372925,0.8347962498664856,0.08358369022607803,0.04873986169695854,0.7397873997688293,0.20323969423770905,-0.16898755729198456,-0.23502133786678314,0.18471220135688782,-0.008182133547961712,0.21368174254894257,-0.6701110601425171,-0.03258341923356056
154,838.6166812672335,852.8930532418045,858.7394935757507,837.8424191942402,845.7272159352023,0.04629177517361111,-0.3062744140625,0.9432712131076388,-0.3007337782118056,4.142981635199653,5.768771701388889,0.7094545066356659,0.16785741597414017,-0.2393905073404312,0.66974076628685,0.03985720966011286,0.33047717809677124,-0.361621618270874,0.24835115671157837,0.7332572638988495,-0.016836064867675304,-0.06425380147993565,0.610479861497879,0.11464670673012733,-0.29322564601898193,-0.2884572446346283,0.007591051980853081,-0.03581505827605724,0.18865913152694702,-0.6886108815670013,-0.0384583231061697
155,842.9613999586838,854.5224092923678,858.8771503155048,839.6759690504807,847.3781292255109,0.0399169921875,-0.30419921875,0.938446044921875,-0.5732218424479166,5.804494222005208,6.036275227864583,0.6569876074790955,0.13687148690223694,-0.2506139576435089,0.27293527126312256,0.005985364317893982,0.27057039737701416,-0.4009949266910553,0.24867284297943115,0.619574248790741,-0.16936331987380981,-0.18346945941448212,0.4972689747810364,0.11770632117986679,-0.3988921344280243,-0.3366352617740631,-0.04328218102455139,-0.03516590595245361,0.16533257067203522,-0.7016754150390625,-0.02424314245581627
156,837.0879187950721,855.5452270507812,864.5491685133713,844.2166818472056,845.3169978215144,0.038869222005208336,-0.30181884765625,0.9478963216145834,-0.10965983072916667,6.2045033772786455,5.478006998697917,0.7021917700767517,0.12779314815998077,-0.2541166841983795,0.20199930667877197,0.027750477194786072,0.25353172421455383,-0.4236670732498169,0.2661689519882202,0.577362596988678,-0.2870180904865265,-0.23700471222400665,0.49330639839172363,0.23508507013320923,-0.45222994685173035,-0.36999890208244324,0.04850759729743004,-0.015232432633638382,0.15516909956932068,-0.7046400904655457,-0.0009867058834061027
157,839.6604731633113,855.40574998122,862.4880159818209,835.2592280461238,842.6824505145734,0.0361328125,-0.296142578125,0.9379475911458334,-0.3788248697916667,0.6853739420572916,5.819447835286458,0.771380603313446,0.12527720630168915,-0.2816573679447174,0.3470904529094696,0.07970117032527924,0.25527939200401306,-0.43279948830604553,0.2852865755558014,0.580578625202179,-0.372138112783432,-0.2629411816596985,0.5272412896156311,0.38372519612312317,-0.49264949560165405,-0.4001511335372925,0.1741643249988556,0.010477990843355656,0.14905954897403717,-0.6990802884101868,0.0316251702606678
158,851.472529296875,857.4681274414063,862.8673999023438,850.1992797851562,845.9765551757813,0.03759765625,-0.2986907958984375,0.9478683471679688,-1.5767754448784723,4.547559950086805,5.694003634982639,0.8224689364433289,0.13134194910526276,-0.31711244583129883,0.4601287841796875,0.15091751515865326,0.2622750997543335,-0.4264797866344452,0.3030500113964081,0.6062600016593933,-0.4018266499042511,-0.2503742277622223,0.5565027594566345,0.5042561292648315,-0.5215945839881897,-0.42185893654823303,0.28318217396736145,0.04115856811404228,0.14663736522197723,-0.6825448274612427,0.07431957125663757
159,845.1310237004207,859.7914874737079,867.2921940730168,843.519301194411,845.7664090670072,0.040242513020833336,-0.3003743489583333,0.94287109375,-1.1165364583333333,2.5097147623697915,6.811370849609375,0.8508281707763672,0.1419447809457779,-0.3399324417114258,0.520681619644165,0.2285325676202774,0.26795777678489685,-0.4088101089000702,0.3266831338405609,0.6256336569786072,-0.4111728370189667,-0.2122931331396103,0.5509474873542786,0.5792330503463745,-0.5381935238838196,-0.4347769618034363,0.35945573449134827,0.0797615498304367,0.14643405377864838,-0.6600881814956665,0.12414774298667908
160,860.4578740046575,871.4764685997596,872.2513333834135,855.1267958420974,843.4263141338641,0.042470296223958336,-0.2992757161458333,0.947418212890625,-0.538330078125,2.5832366943359375,6.0275522867838545,0.8877721428871155,0.15307052433490753,-0.36507532000541687,0.5476230978965759,0.30253949761390686,0.2745094299316406,-0.38670819997787476,0.3616883456707001,0.6410103440284729,-0.40926653146743774,-0.17711718380451202,0.5222456455230713,0.6204504370689392,-0.5412271618843079,-0.44504278898239136,0.4169536232948303,0.12605825066566467,0.14562880992889404,-0.6402368545532227,0.17337727546691895
161,845.5339519794171,872.3598163311298,879.2406311035156,843.9687241774338,842.4809852013221,0.05157470703125,-0.295562744140625,0.949310302734375,-1.31591796875,4.341033935546875,6.392669677734375,0.9250314831733704,0.15999068319797516,-0.3788949251174927,0.5948085188865662,0.366473913192749,0.282787948846817,-0.36574995517730713,0.4033184349536896,0.6605973839759827,-0.3299159109592438,-0.14475609362125397,0.494301438331604,0.65406733751297,-0.5283256769180298,-0.45920658111572266,0.48294270038604736,0.17542721331119537,0.1436372697353363,-0.6277462840080261,0.21465222537517548
162,831.5863553560697,870.5931208683894,888.7869779146635,833.2600754957932,854.1504587026743,0.048665364583333336,-0.2973836263020833,0.9471842447916666,-1.5352376302083333,1.3483174641927083,9.635111490885416,0.9349890947341919,0.16757409274578094,-0.3974868357181549,0.6380216479301453,0.4187588691711426,0.28892070055007935,-0.3480850160121918,0.44396984577178955,0.6916226744651794,-0.13495656847953796,-0.06801258027553558,0.49345049262046814,0.6967898011207581,-0.4899286925792694,-0.4821382462978363,0.5720959305763245,0.22331498563289642,0.14203208684921265,-0.6181100606918335,0.24918441474437714
163,832.733166034405,876.4046231783353,891.2355604905349,827.371096097506,842.9768934983474,0.03221435546875,-0.29254150390625,0.93704833984375,0.6143442789713541,4.388885498046875,5.400746663411458,0.930536150932312,0.18306036293506622,-0.3667752742767334,0.6938825845718384,0.46289172768592834,0.29020723700523376,-0.3329753875732422,0.47892406582832336,0.7422756552696228,0.08395766466856003,0.0797562450170517,0.53553706407547,0.7437553405761719,-0.4321706295013428,-0.5144751667976379,0.6704944968223572,0.267141729593277,0.14175979793071747,-0.6051586270332336,0.28276997804641724
164,828.9084204101563,893.66740234375,883.6102612304687,832.905498046875,846.1860766601562,0.040618896484375,-0.2888692220052083,0.94940185546875,-1.7857106526692708,4.996999104817708,5.973968505859375,0.9217789173126221,0.18746156990528107,-0.3384634852409363,0.7426487803459167,0.5008297562599182,0.28877151012420654,-0.32057854533195496,0.5063947439193726,0.8162703514099121,0.236650288105011,0.2524360120296478,0.6089562177658081,0.7800794243812561,-0.36547958850860596,-0.5502985715866089,0.7533827424049377,0.30592435598373413,0.14100787043571472,-0.5871573686599731,0.3209195137023926
165,843.875732421875,902.8275545560397,888.9419626089243,850.8650324894832,851.0665024977463,0.044789632161458336,-0.2883199055989583,0.951629638671875,-0.5271148681640625,4.2455800374348955,5.717264811197917,0.918782651424408,0.21369776129722595,-0.2687722146511078,0.7849429249763489,0.5320082902908325,0.289501816034317,-0.3130592107772827,0.5259129405021667,0.8884760737419128,0.33164089918136597,0.4057469666004181,0.6858536005020142,0.7995503544807434,-0.3027377426624298,-0.5841506123542786,0.8081857562065125,0.33784669637680054,0.13640257716178894,-0.5707688331604004,0.3628820776939392
166,839.133559006911,893.5601571890024,897.7754328801082,846.2778155987079,847.1301785982572,0.031717936197916664,-0.2916666666666667,0.95294189453125,-1.3358561197916667,2.2156270345052085,9.851938883463541,0.9324458241462708,0.20584861934185028,-0.22137708961963654,0.8473086953163147,0.5574477314949036,0.2937919497489929,-0.31063318252563477,0.5406713485717773,0.9483111500740051,0.4454333186149597,0.5091034770011902,0.7682294845581055,0.8065864443778992,-0.24507860839366913,-0.6064423322677612,0.8356512784957886,0.3612772822380066,0.12775668501853943,-0.5593599677085876,0.402407705783844
167,837.7077988844651,882.8050138033353,896.7061204176682,834.5773479755109,841.6441204364484,0.03485107421875,-0.2966512044270833,0.9417012532552084,-0.9981536865234375,3.8692474365234375,5.714772542317708,0.9617352485656738,0.21487446129322052,-0.20073193311691284,0.9751760959625244,0.5805843472480774,0.2992199659347534,-0.3080276548862457,0.5578333735466003,0.9908549189567566,0.6125611066818237,0.5626030564308167,0.8499068021774292,0.8089745044708252,-0.192999467253685,-0.6008039712905884,0.8452001214027405,0.3779887557029724,0.11790995299816132,-0.5504282116889954,0.4347248077392578
168,844.0152118389423,867.7881117600662,895.9002521221454,840.8382615309495,838.2037189190204,0.045572916666666664,-0.28778076171875,0.9574178059895834,-0.16448974609375,3.596343994140625,3.1751505533854165,0.9765363931655884,0.25432953238487244,-0.21606744825839996,1.0498158931732178,0.603029191493988,0.3018130362033844,-0.296414315700531,0.5848017930984497,1.0162534713745117,0.7839231491088867,0.5930942296981812,0.9213674068450928,0.8114593029022217,-0.14774639904499054,-0.5685952305793762,0.8478696942329407,0.3919079005718231,0.109904944896698,-0.5394643545150757,0.46122896671295166
169,837.4021948242188,860.0791186523437,881.3860888671875,829.4564111328125,856.0175805664062,0.045552571614583336,-0.28521728515625,0.9473978678385416,-0.8573404947916666,3.5701751708984375,5.672403971354167,0.9765363931655884,0.30327749252319336,-0.21606744825839996,1.0662328004837036,0.6223674416542053,0.29915761947631836,-0.2732558846473694,0.6220165491104126,1.0285340547561646,0.9282216429710388,0.6289913058280945,0.9788320660591125,0.8132547736167908,-0.11639329046010971,-0.518717885017395,0.849433958530426,0.40645572543144226,0.10334760695695877,-0.5258070230484009,0.48814189434051514
170,829.4322368915265,843.6277770996094,861.1707505446213,835.9566086989182,847.7810645470253,0.052866617838541664,-0.2707621256510417,0.9584554036458334,1.487884521484375,2.87109375,4.7465260823567705,0.9765363931655884,0.37312108278274536,-0.20940670371055603,1.0679973363876343,0.6365218162536621,0.28253862261772156,-0.2205415815114975,0.699664831161499,1.0330289602279663,1.1369876861572266,0.732653021812439,1.039201259613037,0.7842102646827698,-0.0826796218752861,-0.31413188576698303,0.8435382843017578,0.43458178639411926,0.08371065557003021,-0.4971436560153961,0.5533232688903809
171,844.0926983173077,839.784437913161,848.1530033991887,842.4964787409856,841.2876868614784,0.046427408854166664,-0.276275634765625,0.9490966796875,-2.9358927408854165,7.0967356363932295,6.696726481119792,0.9765363931655884,0.38542667031288147,-0.20382653176784515,1.0739307403564453,0.632468581199646,0.2735389173030853,-0.20309977233409882,0.7311166524887085,1.0261280536651611,1.202796220779419,0.816929817199707,1.0408023595809937,0.742479145526886,-0.07353321462869644,-0.17667926847934723,0.8322741985321045,0.44465553760528564,0.06769700348377228,-0.4845999479293823,0.5851667523384094
172,842.8839111328125,841.8765845665565,834.5928509051984,833.5700190617488,842.6979417067307,0.036417643229166664,-0.2779541015625,0.9481201171875,-2.220611572265625,6.198272705078125,4.615681966145833,0.9762589931488037,0.3910529315471649,-0.18927721679210663,1.07675039768219,0.6247307062149048,0.26422351598739624,-0.18973642587661743,0.7589366436004639,1.0152403116226196,1.2484030723571777,0.9199163317680359,1.0366581678390503,0.6915885806083679,-0.05990670993924141,-0.05745186284184456,0.8169752955436707,0.4531581401824951,0.04434404522180557,-0.4708288311958313,0.6113435626029968
173,852.1048137958234,831.8653118426984,836.3905310997596,846.3398132324219,845.9368826059194,0.03375244140625,-0.2874959309895833,0.9531046549479166,-1.3034566243489583,10.394007364908854,2.5608062744140625,0.9645561575889587,0.39335083961486816,-0.18927721679210663,1.07675039768219,0.614336371421814,0.2505631446838379,-0.17751480638980865,0.7854665517807007,1.0065028667449951,1.2801430225372314,1.026685118675232,1.0354756116867065,0.648958146572113,-0.03986514359712601,0.026672160252928734,0.800341010093689,0.46276387572288513,0.010512041859328747,-0.44584688544273376,0.6324637532234192
174,854.9563293457031,824.4885840782753,837.1963923527644,850.0436730018029,844.6970942570613,0.02764892578125,-0.2724609375,0.9524129231770834,-0.3563944498697917,7.718556722005208,5.896708170572917,0.9448784589767456,0.39335083961486816,-0.18927721679210663,1.07675039768219,0.6018337607383728,0.22883917391300201,-0.1640513837337494,0.8121730089187622,1.0017989873886108,1.3008733987808228,1.1292754411697388,1.0353819131851196,0.6226465106010437,-0.026127753779292107,0.07872281968593597,0.7814789414405823,0.4738047420978546,-0.031867288053035736,-0.4064052999019623,0.6505619883537292
175,844.1546959510216,824.3026146521935,833.6940025916466,845.7509155273438,848.7883887657753,0.01898193359375,-0.2723931206597222,0.9543050130208334,0.1952277289496528,2.9109700520833335,6.245625813802083,0.9213263392448425,0.3933395445346832,-0.16429515182971954,1.07675039768219,0.5897600650787354,0.20297665894031525,-0.1503010094165802,0.8383349180221558,0.9990666508674622,1.313007116317749,1.2120389938354492,1.0351431369781494,0.5982069373130798,-0.01669768989086151,0.10984978079795837,0.7521098852157593,0.4842003583908081,-0.07351071387529373,-0.3612879812717438,0.6657556891441345
176,827.0611431415265,832.2217501126803,832.0047912597656,835.1042550893931,844.3716477614182,0.028849283854166668,-0.2722574869791667,0.95257568359375,-2.4798075358072915,2.998199462890625,6.111043294270833,0.8826906681060791,0.3921501040458679,-0.16464364528656006,1.07675039768219,0.5830426216125488,0.18407891690731049,-0.13898396492004395,0.8607932925224304,0.9961750507354736,1.3197286128997803,1.261136770248413,1.034296989440918,0.5572484731674194,-0.018242904916405678,0.13191631436347961,0.7015886306762695,0.491188108921051,-0.10621846467256546,-0.3267603814601898,0.6760979890823364
177,819.4364624023438,834.6393362192007,840.3888432429387,821.0946749173678,844.557619535006,0.019704182942708332,-0.26849365234375,0.9569600423177084,-1.3246409098307292,2.787602742513021,6.335347493489583,0.8395023345947266,0.3851139545440674,-0.14020659029483795,1.07675039768219,0.5838825702667236,0.17775851488113403,-0.1315615326166153,0.8758993744850159,0.9989683628082275,1.3243818283081055,1.2783478498458862,1.0348424911499023,0.4990507960319519,-0.034283142536878586,0.14777357876300812,0.6288585662841797,0.49534064531326294,-0.13309529423713684,-0.30881738662719727,0.6806508898735046
178,846.1881350253491,838.8153673537234,845.7937829849568,850.5603637695312,848.8886316177693,0.02883148193359375,-0.268646240234375,0.9555587768554688,-0.8617019653320312,1.0532951354980469,1.2159156799316406,0.8574332296848297,0.3630080372095108,-0.07087054662406445,1.089734137058258,0.6013966798782349,0.17821599543094635,-0.12406132370233536,0.8835763931274414,1.0256471633911133,1.334487795829773,1.2628761529922485,1.054474115371704,0.45881542563438416,-0.08133620396256447,0.1639665886759758,0.5543870031833649,0.5000036507844925,-0.17145130783319473,-0.30094730854034424,0.6780710816383362
179,848.0445181039663,834.7013221153846,843.0543799767128,845.4409743088943,847.5176086425781,0.063568115234375,-0.2745564778645833,0.951141357421875,-5.649973551432292,0.770111083984375,3.4069315592447915,0.9410766959190369,0.3575294613838196,0.025496868416666985,1.1179237365722656,0.6331142783164978,0.1713358759880066,-0.11571866273880005,0.8872169852256775,1.0832990407943726,1.3313922882080078,1.2512123584747314,1.089587688446045,0.5094722509384155,-0.14474394917488098,0.17244097590446472,0.5826941728591919,0.5050036311149597,-0.19382813572883606,-0.29315829277038574,0.6707342267036438
180,840.7917738694412,837.4288470928485,841.9540710449219,835.6466604379507,848.8813758263221,0.062408447265625,-0.2883707682291667,0.950225830078125,-1.1913045247395833,2.6891581217447915,6.477406819661458,0.967269778251648,0.33986902236938477,0.06617230921983719,1.1210671663284302,0.6613479852676392,0.15946179628372192,-0.10866021364927292,0.8963015675544739,1.157996416091919,1.3116704225540161,1.2469675540924072,1.1383458375930786,0.5574862957000732,-0.18996042013168335,0.17566567659378052,0.633235514163971,0.5077511668205261,-0.19003532826900482,-0.28444865345954895,0.6687518954277039
181,832.9036325307993,843.6587712214543,845.9368826059194,831.400392972506,845.4409696138822,0.0587158203125,-0.2798868815104167,0.9490966796875,-0.93011474609375,3.470733642578125,7.065582275390625,0.9883039593696594,0.3217281997203827,0.09667149186134338,1.1446356773376465,0.6914206743240356,0.1462358981370926,-0.10233734548091888,0.91392582654953,1.2231216430664062,1.2733612060546875,1.2466156482696533,1.1890264749526978,0.5831404328346252,-0.23173393309116364,0.17899250984191895,0.6712583899497986,0.5100756883621216,-0.1755395233631134,-0.2665841579437256,0.6747788190841675
182,835.7551480806791,838.6531395545372,845.952383188101,838.0177471454327,845.6889249361478,0.054097493489583336,-0.2736002604166667,0.95562744140625,-1.54022216796875,7.429453531901042,8.812662760416666,1.0981532335281372,0.3164619505405426,0.14463190734386444,1.1485055685043335,0.72347491979599,0.13972339034080505,-0.0826888307929039,0.9382007122039795,1.2714502811431885,1.218153476715088,1.2425878047943115,1.231269121170044,0.5868189334869385,-0.2622635066509247,0.18435080349445343,0.7001447677612305,0.5185962319374084,-0.14161525666713715,-0.20664814114570618,0.6903054118156433
183,843.0109887695312,834.3076977539063,844.6065942382812,844.1875390625,846.8630029296875,0.040496826171875,-0.2790629069010417,0.9499003092447916,-2.0237223307291665,6.1671193440755205,6.9447072347005205,1.1910228729248047,0.30922889709472656,0.24146531522274017,1.1332985162734985,0.7591343522071838,0.1497265100479126,-0.02767827920615673,0.9647526144981384,1.3030186891555786,1.1461737155914307,1.233394980430603,1.2606346607208252,0.5794732570648193,-0.28633373975753784,0.18760737776756287,0.7271668910980225,0.5429665446281433,-0.07716292142868042,-0.08576852828264236,0.7117447853088379
184,844.5421213003306,846.8822209284856,845.8438978928787,845.1000272310697,837.7078153170072,0.042622884114583336,-0.2779541015625,0.94647216796875,-0.8324178059895834,5.318501790364583,5.320994059244792,1.245877981185913,0.2626962959766388,0.35943832993507385,1.1393516063690186,0.7967020869255066,0.1794101744890213,0.056915197521448135,0.9890790581703186,1.3193963766098022,1.058911681175232,1.2168564796447754,1.277169108390808,0.567414402961731,-0.31256401538848877,0.17665579915046692,0.7479192018508911,0.5840639472007751,0.00672386959195137,0.0559852160513401,0.7319490313529968
185,847.2231633112981,848.6644075833834,852.0738267164963,853.6080533541166,841.3806786170372,0.048878987630208336,-0.2748819986979167,0.9589945475260416,-0.3239949544270833,3.649927775065104,5.09918212890625,1.2697482109069824,0.1724652796983719,0.38719630241394043,1.179090976715088,0.8305572271347046,0.22179190814495087,0.1374792754650116,1.0070797204971313,1.3284426927566528,0.9676606059074402,1.1862249374389648,1.2875117063522339,0.5541191101074219,-0.3346502184867859,0.14188532531261444,0.7570119500160217,0.6282100677490234,0.08404342085123062,0.16917313635349274,0.7451027035713196
186,832.5781907301682,846.541273850661,852.67822265625,835.460693359375,842.9923987755409,0.041666666666666664,-0.2768147786458333,0.9472452799479166,-1.1090596516927083,5.9527842203776045,6.3116709391276045,1.2939872741699219,0.1376427710056305,0.38719630241394043,1.1941553354263306,0.855683445930481,0.2660313844680786,0.18908444046974182,1.016055941581726,1.3341879844665527,0.882648766040802,1.1339616775512695,1.2945215702056885,0.5467278957366943,-0.3553336262702942,0.08295217156410217,0.7596746683120728,0.6601134538650513,0.14286372065544128,0.23498229682445526,0.7498958706855774
187,843.2093505859375,847.9050504244291,848.8193875826322,836.5455017089844,834.2518967848557,0.04534912109375,-0.27099609375,0.95330810546875,-0.6903584798177084,4.413808186848958,4.5770517985026045,1.3016159534454346,0.06310456991195679,0.38719630241394043,1.1941794157028198,0.871109127998352,0.30382683873176575,0.2093711644411087,1.0148965120315552,1.3359277248382568,0.8121016025543213,1.0532631874084473,1.2986562252044678,0.5525191426277161,-0.37670764327049255,0.013020419515669346,0.764923095703125,0.6731996536254883,0.18788088858127594,0.25900009274482727,0.7488242387771606
188,848.1349207560221,845.6501744588217,854.1956685384115,832.6388854980469,856.1431655883789,0.03912353515625,-0.2686564127604167,0.9599202473958334,-0.7800801595052084,4.089813232421875,6.611989339192708,1.30372953414917,0.00434292433783412,0.38719630241394043,1.1941794157028198,0.8797740340232849,0.33157968521118164,0.20933465659618378,1.0045855045318604,1.3347995281219482,0.7627159357070923,0.9307642579078674,1.306726098060608,0.5692369341850281,-0.3773353397846222,-0.049983348697423935,0.7765471935272217,0.6716780662536621,0.22816790640354156,0.2585586607456207,0.7458034753799438
189,847.3626356858474,848.4629493126503,859.9154663085938,845.564946101262,848.9898634690505,0.037363688151041664,-0.274200439453125,0.9530436197916666,-2.236811319986979,5.642496744791667,4.7963714599609375,1.30372953414917,-0.009663067758083344,0.38399556279182434,1.1941794157028198,0.8839669823646545,0.3476443588733673,0.2012307047843933,0.9882798194885254,1.3347489833831787,0.7275140285491943,0.7616435289382935,1.3181217908859253,0.5943312644958496,-0.36084431409835815,-0.09676362574100494,0.7925418615341187,0.6641815900802612,0.26436087489128113,0.2506712079048157,0.7443051338195801
190,840.5631866455078,847.5305252075195,857.6541493733724,846.8253911336263,855.0686823527018,0.031036376953125,-0.2753499348958333,0.952301025390625,-0.5196380615234375,4.104766845703125,5.859324137369792,1.30372953414917,-0.035221848636865616,0.38399556279182434,1.1941794157028198,0.8833882212638855,0.35273170471191406,0.19108055531978607,0.9708472490310669,1.3367348909378052,0.6864024996757507,0.5797004103660583,1.3285553455352783,0.6265516877174377,-0.31085625290870667,-0.13079947233200073,0.8068518042564392,0.6577354669570923,0.29171666502952576,0.24435847997665405,0.7444482445716858
191,828.9208233173077,819.1730018028846,861.3722229003906,877.8303715632512,894.1800490159255,0.0418701171875,-0.26666259765625,0.9580078125,0.4211934407552083,2.5221761067708335,5.036875406901042,1.30372953414917,-0.06640948355197906,0.38399556279182434,1.1941794157028198,0.8800415992736816,0.35305503010749817,0.181644469499588,0.957978367805481,1.3329315185546875,0.6336407661437988,0.45329955220222473,1.3371316194534302,0.6638562679290771,-0.21580247581005096,-0.15123198926448822,0.8128213286399841,0.6545562744140625,0.3094359040260315,0.24285496771335602,0.7454536557197571
192,839.3350219726562,831.8033235990084,857.1724430964543,875.9706960824819,810.7424598106971,0.04425048828125,-0.2719828287760417,0.96044921875,-5.8456166585286455,3.3147176106770835,5.0829823811848955,1.30372953414917,-0.06449203938245773,0.3852652609348297,1.1941794157028198,0.877332866191864,0.35648083686828613,0.17459717392921448,0.9536566138267517,1.3181917667388916,0.5872675180435181,0.4058609902858734,1.3494577407836914,0.6938498020172119,-0.10105692595243454,-0.1630563735961914,0.8058008551597595,0.6555172204971313,0.32093924283981323,0.24641956388950348,0.7462406754493713
193,853.0811509352463,850.4466036283053,856.5525512695312,832.7176677997296,840.5903015136719,0.049540201822916664,-0.2716267903645833,0.9545694986979166,3.1751505533854165,4.363962809244792,5.340932210286458,1.30372953414917,0.3180050849914551,0.39177799224853516,1.1723958253860474,0.8571507334709167,0.3934185206890106,0.17717738449573517,0.9568650722503662,1.1777758598327637,0.9184452295303345,0.3469410240650177,1.4228646755218506,0.7053148746490479,0.2663608491420746,-0.11897125095129013,0.7789111733436584,0.6851341724395752,0.3445228338241577,0.27883660793304443,0.7327143549919128
194,845.0070354755109,847.2386568509615,856.3200941819412,829.6182039701022,849.5167705829327,0.044504801432291664,-0.2737019856770833,0.9542134602864584,-0.844879150390625,3.036829630533854,7.3359934488932295,1.2968436479568481,0.3229246735572815,0.39177799224853516,1.161342978477478,0.8320521116256714,0.40129390358924866,0.17870576679706573,0.9380965232849121,1.1335463523864746,1.0671460628509521,0.2993408441543579,1.469321608543396,0.7251110672950745,0.3530685007572174,-0.1066473051905632,0.790067195892334,0.6927722692489624,0.3482845425605774,0.2838849723339081,0.7197790741920471
195,842.7369873046875,848.4424975585938,851.4241772460938,836.0967065429687,846.911357421875,0.038655598958333336,-0.26300048828125,0.9529825846354166,0.18193562825520834,5.151519775390625,9.174041748046875,1.287898063659668,0.3229246735572815,0.3918476104736328,1.1481441259384155,0.7984042763710022,0.4010368287563324,0.16821222007274628,0.901835024356842,1.109177589416504,1.1669261455535889,0.26160407066345215,1.5109425783157349,0.7601557374000549,0.40753331780433655,-0.1130598932504654,0.8008720874786377,0.6915465593338013,0.3434670865535736,0.27007347345352173,0.7006611227989197
196,842.2330204890325,850.0126788799579,855.7621882512019,845.5494478665865,850.0281771146334,0.03158908420138889,-0.2713690863715278,0.9494154188368056,-0.0016615125868055555,5.573543972439236,5.768771701388889,1.2837499380111694,0.3229246735572815,0.3918476104736328,1.1396708488464355,0.758936882019043,0.3878486454486847,0.13047239184379578,0.851205587387085,1.1042309999465942,1.2216367721557617,0.24030376970767975,1.5392884016036987,0.8000348806381226,0.4356234073638916,-0.1445697546005249,0.8049377202987671,0.6800729036331177,0.3237355947494507,0.22236137092113495,0.6759803295135498
197,843.3178358811599,851.2524695763221,862.3020559457632,855.731189434345,850.2296447753906,0.037089029947916664,-0.2603759765625,0.9626261393229166,2.9932149251302085,12.870076497395834,-4.341532389322917,1.279165506362915,0.3229246735572815,0.38251328468322754,1.1784720420837402,0.7162501215934753,0.3579781949520111,0.05641359090805054,0.7946994304656982,1.1143524646759033,1.2447494268417358,0.23335599899291992,1.5590018033981323,0.8383037447929382,0.45009276270866394,-0.19183774292469025,0.8082998991012573,0.6605939269065857,0.2893006205558777,0.13254298269748688,0.6509274244308472
198,843.8447453425481,848.4474510779747,858.3192443847656,847.2696533203125,857.4823913574219,0.034830729166666664,-0.24138387044270834,0.9740498860677084,0.7165273030598959,4.416300455729167,5.0007375081380205,1.2335528135299683,0.3229246735572815,0.27102869749069214,1.2064945697784424,0.676703691482544,0.31325089931488037,-0.044480618089437485,0.7447845935821533,1.125178575515747,1.2512766122817993,0.23949778079986572,1.5716859102249146,0.8716233372688293,0.4589509069919586,-0.2325185090303421,0.8207602500915527,0.6400846838951111,0.25051262974739075,0.011537548154592514,0.6342260241508484
199,846.8357262244591,853.6235586313101,853.9025104229266,842.1090416541466,858.0557908278245,0.025044759114583332,-0.2541300455729167,0.9488118489583334,-1.3707478841145833,-0.9146626790364584,9.547882080078125,1.1514369249343872,0.325044184923172,0.04489601403474808,1.228190541267395,0.6493515968322754,0.26069149374961853,-0.138617604970932,0.7130841016769409,1.1285609006881714,1.2503626346588135,0.2587093114852905,1.5793211460113525,0.8943132162094116,0.46394455432891846,-0.25221383571624756,0.8429988026618958,0.6252233386039734,0.2177872508764267,-0.10079261660575867,0.6290996074676514
200,839.1180631197416,851.670889047476,852.8176926832932,834.8717980018029,849.8732018103966,0.030161539713541668,-0.2572428385416667,0.9544576009114584,0.8386484781901041,6.5783437093098955,5.719757080078125,1.0158401727676392,0.32732364535331726,-0.13117846846580505,1.2178955078125,0.6375632882118225,0.2089761346578598,-0.1902618706226349,0.7027407288551331,1.125921368598938,1.246038794517517,0.2865346074104309,1.5872859954833984,0.9045846462249756,0.46664437651634216,-0.253083199262619,0.8648577928543091,0.617350161075592,0.1887410283088684,-0.16104348003864288,0.6292364001274109
