No,RAW_TP9,RAW_AF7,RAW_AF8,RAW_TP10,REF,Accelerometer_X,Accelerometer_Y,Accelerometer_Z,Gyro_X,Gyro_Y,Gyro_Z,Alpha_TP9,Alpha_AF7,Alpha_AF8,Alpha_TP10,Beta_TP9,Beta_AF7,Beta_AF8,Beta_TP10,Delta_TP9,Delta_AF7,Delta_AF8,Delta_TP10,Theta_TP9,Theta_AF7,Theta_AF8,Theta_TP10,Gamma_TP9,Gamma_AF7,Gamma_AF8,Gamma_TP10
2.0,1024.404051951873,25.379449184124287,945.9411088992388,883.9828115609977,1028.2164040589944,0.7867182978877314,-0.025560167100694448,0.6301631221064815,-2.3903627748842595,-2.9666307237413196,5.232103135850694,0.0,0.0,0.0,0.41852644085884094,0.0,0.0,0.0,0.47191858291625977,0.0,0.0,0.0,1.6947269439697266,0.0,0.0,0.0,1.0636045932769775,0.0,0.0,0.0,0.019698938354849815
5.0,1038.501452323718,25.38203206429115,658.7524627294296,953.0259677202274,987.6004951672676,0.7951592339409722,-0.025473700629340276,0.6262173122829862,2.226842244466146,9.206648932562933,5.875939263237846,0.0,-1.3265667756398518,0.9109357992808024,0.41852644085884094,0.0,-1.3190675973892212,0.6893021861712137,0.47191858291625977,0.0,-1.5130077203114827,2.0855233669281006,1.6947269439697266,0.0,-1.499927282333374,1.099750240643819,1.0636045932769775,0.0,-1.355651060740153,0.35485877593358356,0.019698938354849815
8.0,1000.7342524874038,25.384614944458008,371.489924441479,989.4411916062983,961.5082859137119,0.7003919813368057,0.03442721896701389,0.7024197048611112,5.442284478081596,6.670142279730903,8.548066880967882,0.0,-3.9797003269195557,1.0063706636428833,0.41852644085884094,0.0,-4.042595545450847,0.6954091787338257,0.47191858291625977,0.0,-4.640641371409099,2.069230794906616,1.6947269439697266,0.0,-4.591600100199382,1.1279336214065552,1.0636045932769775,0.0,-4.148636023203532,0.38187241554260254,0.019698938354849815
11.0,977.5711458646334,25.369117663456844,752.4002067370293,954.5162979517228,955.0018803523138,0.7357618543836805,0.028703477647569444,0.6905314127604166,-1.8592325846354167,-2.3003641764322915,7.449807061089409,0.0,-3.9797003269195557,1.0063706636428833,0.41852644085884094,0.0,-4.087861855824788,0.6954091787338257,0.47191858291625977,0.0,-4.713293552398682,2.069230794906616,1.6947269439697266,0.0,-4.641133467356364,1.1279336214065552,1.0636045932769775,0.0,-4.1893205642700195,0.38187241554260254,0.019698938354849815
14.0,961.3318117112381,25.379449184124287,752.8895082757412,922.7240514823717,933.1731758626302,0.7642449273003472,0.014895968967013888,0.6615973578559028,-2.000461154513889,2.411685519748264,4.920569525824653,0.2138537367184957,-3.9812000592549643,0.9997930328051249,0.41852644085884094,0.213749627272288,-4.096499125162761,0.6960726380348206,0.47191858291625977,0.47998567422231037,-4.76002311706543,2.0843073527018228,1.6947269439697266,0.20880993207295737,-4.736631870269775,1.1653252442677815,1.0636045932769775,-0.008307916422684988,-4.188202857971191,0.3774067461490631,0.019698938354849815
17.0,956.7873744866787,25.384614944458008,804.4486907489483,902.3704857772436,911.3306280361079,0.7541323061342592,-0.01166675708912037,0.6907868561921297,10.654449462890625,21.37314407913773,9.544835973668981,0.8017351627349854,-4.086871941884358,0.9943198561668396,0.4111880858739217,0.6979156136512756,-4.1491672197977705,0.692152738571167,0.581342359383901,1.4207945664723713,-4.8812947273254395,2.0935823917388916,1.69106129805247,0.7220896482467651,-4.946968078613281,1.1971744298934937,1.0727624495824177,0.0068679796531796455,-4.2169491449991865,0.3752630054950714,-0.03731807693839073
20.0,980.6701936699261,25.362864847470288,768.0543211380055,895.7803538460449,861.5139758450478,0.5984056260850695,0.09315660264756946,0.7930467393663195,17.183363172743057,20.757276746961807,7.82073974609375,0.8200770616531372,-4.13603401184082,0.9943198561668396,0.4859935442606608,0.7002358635266622,-4.190643310546875,0.692152738571167,0.7691012024879456,1.3848011096318562,-4.958139419555664,2.0935823917388916,1.619256814320882,0.8032681941986084,-5.003158251444499,1.1971744298934937,1.0656090180079143,0.010041131094718972,-4.256280581156413,0.3752630054950714,-0.08768219252427419
23.0,960.8885917154948,25.384614944458008,1186.5612291541468,855.062118013822,872.8232942708333,0.5455039695457176,0.2006202980324074,0.8184034559461805,-2.0082148799189814,9.231363932291668,-12.605757536711517,0.8297753731409708,-4.086491425832112,0.9943198561668396,0.7008455991744995,0.6449766953786215,-4.19571320215861,0.692152738571167,0.6585198243459066,1.441637674967448,-4.931283315022786,2.0935823917388916,1.5443111260732014,0.8222348491350809,-5.072710673014323,1.1971744298934937,1.0187445878982544,-0.022344364784657955,-4.20999797185262,0.3752630054950714,0.004141202254686505
26.0,940.2987771423863,25.379242553710938,995.2951451645549,830.8773767794096,870.9296396187025,0.5643113878038194,0.18599243164062498,0.8126702202690973,-4.256379869249132,1.1796739366319442,-0.16199747721354166,0.9411119023958842,-4.030191898345947,0.9943198561668396,0.8969810009002686,0.5901455283164978,-4.183572610219319,0.692152738571167,0.5973958770434061,1.4398440917332966,-4.8462174733479815,2.0935823917388916,1.5625356833140056,0.9155534505844116,-5.00264326731364,1.1971744298934937,0.9785478115081787,-0.008527897608776888,-4.096756776173909,0.3752630054950714,0.07494974384705226
29.0,932.6960660494291,25.384614944458008,986.6474124223759,838.0539112580127,863.040762094351,0.5833841959635416,0.215911865234375,0.8072136773003472,0.1383209228515625,2.0914289686414933,6.634419759114583,1.0443074703216553,-4.1028798421223955,0.9943198561668396,1.0068840980529785,0.5804211695988973,-4.291426658630371,0.692152738571167,0.5972779790560404,1.5088185866673787,-4.880768458048503,2.0935823917388916,1.7300182183583577,0.9894035458564758,-4.983355363210042,1.1971744298934937,0.994632621606191,0.08547914028167725,-4.162970542907715,0.3752630054950714,0.12880906462669373
32.0,923.2117059169672,25.37428342379057,965.1319650503306,854.3519318409454,889.8976221329127,0.567596435546875,0.19986300998263887,0.8119235568576388,-2.074398464626736,5.219226413302951,6.356116400824653,1.0891451438268025,-4.166111787160237,0.9943198561668396,1.0552825927734375,0.5518182516098022,-4.33319107691447,0.692152738571167,0.5109666188557943,1.5214014053344727,-4.896178404490153,2.0935823917388916,1.768228570620219,1.038657824198405,-4.979687213897705,1.1971744298934937,0.9772553642590841,0.1799522489309311,-4.19752836227417,0.3752630054950714,0.19403059283892313
35.0,911.738515218099,25.384614944458008,951.8714177058292,842.5894618890225,868.0567298302284,0.5648139105902777,0.19718899197048612,0.812103271484375,-1.5886552598741321,3.8238050672743054,6.375805324978299,1.0592390696207683,-4.167878150939941,0.9943198561668396,1.0348724921544392,0.5503278175989786,-4.249299685160319,0.692152738571167,0.43595555424690247,1.4726560910542805,-4.816987991333008,2.0935823917388916,1.7686444123586018,1.0461434125900269,-4.901346683502197,1.1971744298934937,0.9369349678357443,0.25813743968804675,-4.188413302103679,0.3752630054950714,0.2014542520046234
38.0,913.1465695373013,25.379449184124287,978.2135442750067,849.02505012447,858.9270869589259,0.5739305284288195,0.18206787109375,0.8137783474392362,-2.613559299045139,3.149812486436632,7.504221598307292,1.08267875512441,-4.231964270273845,0.9943198561668396,1.0315204858779907,0.608767012755076,-4.256357828776042,0.692152738571167,0.4575308362642924,1.3725367387135823,-4.816432634989421,2.0935823917388916,1.7538869380950928,1.0112849275271099,-4.889224529266357,1.1971744298934937,0.8980124195416769,0.2859858175118764,-4.311699549357097,0.3752630054950714,0.19801154732704163
41.0,907.1732141113281,25.384614944458008,919.2123602138422,844.0670751014122,837.9861349096054,0.5729743109809028,0.18642849392361113,0.8124344437210649,-0.5536990695529513,4.196011578595197,5.052936695240162,1.0838356018066406,-4.734247207641602,0.9943198561668396,1.0048337578773499,0.6518133481343588,-4.327694574991862,0.692152738571167,0.4345721999804179,1.2910856405893962,-4.919739405314128,2.0935823917388916,1.6875605583190918,0.8925858537356058,-4.973216851552327,1.1971744298934937,0.8447045286496481,0.2818690041700999,-4.5445637702941895,0.3752630054950714,0.16009032726287842
44.0,881.5263829001402,25.379242553710938,896.032498466296,822.3950033178085,850.8753633939303,0.576690673828125,0.19714016384548608,0.8091261121961805,-2.5105455186631946,4.177458021375869,3.4804534912109375,1.0765897830327351,-4.8185469309488935,0.9943198561668396,0.9592827955881754,0.6192618409792582,-4.329737186431885,0.692152738571167,0.35327622294425964,1.033252974351247,-4.953473885854085,2.0935823917388916,1.408786455790202,0.7632103761037191,-4.981407642364502,1.1971744298934937,0.723993162314097,0.23837072650591531,-4.578018983205159,0.3752630054950714,0.09242236117521922
47.0,838.2890756907481,25.379449184124287,857.3945741758242,780.8070452903216,831.9209051819221,0.6084962875124007,0.10891529870411705,0.8065296960255456,1.4470113118489583,8.713470458984375,3.4697367350260415,0.5409445762634277,-4.80995241800944,0.7252697845300039,0.78082803885142,0.41255541642506915,-4.746318658192952,0.6578051447868347,0.45599419871966046,1.2140878836313884,-5.4541999499003095,1.4687428871790569,1.2010218699773152,0.6561625599861145,-5.335191567738851,0.69817782441775,0.6225654482841492,0.12931814044713974,-4.827749570210774,0.249436616897583,-0.11979959160089493
50.0,855.3474427469367,25.379449184124287,836.767825103499,802.5646305964543,817.1757280216056,0.46503363715277773,0.17267862955729166,0.8813137478298612,-5.580190022786458,13.321592542860243,-9.056074354383682,0.386007159948349,-4.5123341878255205,0.9988065958023071,0.562748114267985,0.3590996364752452,-4.413947423299153,0.5463425318400065,0.3771146833896637,0.7803124785423279,-5.37483549118042,1.3686070839564006,0.9523289004961649,0.5287291506926218,-5.005921840667725,0.9745274583498637,0.4822398324807485,0.02067233466853698,-4.5274977684021,0.335358202457428,-0.12400571256875992
53.0,848.0251071804773,25.365646050329342,843.3501897117209,803.5343702393589,837.1938255337404,0.4088443023989899,0.2041311553030303,0.9157912129103535,-9.63864220513238,12.250332302517359,3.498107062445746,0.31056756774584454,-4.370188236236572,0.9737161993980408,0.17722671727339426,0.26258209844430286,-4.222665389378865,0.5389275749524435,0.4079592674970627,0.5710156063238779,-5.174399693806966,1.2048158049583435,0.7673683762550354,0.36554210881392163,-4.855284770329793,0.846123198668162,0.17427784949541092,-0.13889994968970618,-4.341939290364583,0.29552118976910907,-0.1392070675889651
56.0,841.2357735658303,25.36756793535673,917.3686936207306,796.3017994416065,820.4706525753705,0.2515414767795139,0.0008660210503472233,0.9524485270182291,-5.309363471137153,4.85099368625217,13.791385226779513,0.4653098036845525,-4.054168184598287,0.5791991154352824,0.2696770528952281,0.27468739946683246,-3.998560070991516,0.5940125981966654,0.3275267680486043,0.7956529955069224,-4.921871264775594,1.1400579412778218,0.9437252581119537,0.42638227840264636,-4.696712096532186,0.5714903573195139,0.25273050119479495,-0.09740301097432773,-4.1129841804504395,0.2779996444781621,-0.021462173123533528
59.0,848.9693137353098,25.379449184124287,907.3520203471388,797.7707178282126,810.5818434834276,0.35601043701171875,0.08103434244791667,0.9228490193684896,14.106553395589193,-11.282501220703125,20.82477569580078,0.6406584878762563,-3.804687182108561,0.10368651400009792,0.551013171672821,0.25865646948417026,-3.857415755589803,0.6043768127759298,0.25502923876047134,0.9386948943138123,-4.743188222249349,1.043161690235138,1.1660871505737305,0.548935130238533,-4.502638339996338,0.5967722833156586,0.3627329220374425,-0.08470431466897328,-3.928170363108317,0.2745613008737564,0.04851444368250668
62.0,832.9397896008613,25.384614944458008,904.5477600097656,791.3811414669722,834.9337854629908,0.4806067311865652,0.12868975777911323,0.8779862884782318,0.4101292773930716,-7.974429660373264,10.352884928385416,0.942834715048472,-3.7909646034240723,-0.09443774074316025,1.221621076265971,0.3340654869874318,-3.8168609937032065,0.611284077167511,0.2830187777678172,1.3688955307006836,-4.747773965199788,0.9794052839279175,1.443939447402954,1.0600019097328186,-4.462794939676921,0.7141702771186829,0.8935945630073547,-0.02103809267282486,-3.884324232737223,0.31252744793891907,0.1290448804696401
65.0,831.2405368350251,25.37313756422563,860.7042097026169,788.2403766886392,824.8233237095072,0.5273674858940972,0.007076687282986109,0.860076904296875,-3.595097859700521,5.727649264865452,-6.976275973849826,0.9602743983268738,-3.7909646034240723,0.4095717668533325,1.2630019187927246,0.39923689762751263,-3.9135963916778564,0.3583165109157562,0.31049637993176776,1.5671405792236328,-4.839720567067464,1.3988406658172607,1.600197712580363,1.3182772397994995,-4.536659558614095,0.8329458832740784,1.1278501351674397,0.03676406480371952,-3.96087638537089,-0.28982409834861755,0.12013560036818187
68.0,838.9424227201022,25.384614944458008,850.9735154371996,788.9222294734074,809.4303526267026,0.4596421983506944,0.11244371202256943,0.8596733940972222,-0.6882815890842015,3.547329372829861,-4.298333062065972,0.9602743983268738,-3.827279726664225,0.4095717668533325,1.2630019187927246,0.4316731293996175,-4.0542575518290205,0.3583165109157562,0.3289765516916911,1.6704302628835042,-4.964607397715251,1.3988406658172607,1.6819942394892375,1.4205857515335083,-4.694030284881592,0.8329458832740784,1.235702117284139,0.06111690029501915,-4.100232124328613,-0.28982409834861755,0.12287783126036327
71.0,839.2058778420472,25.384614944458008,858.0557908278246,802.5960341233473,846.4224665715143,0.5098130967881944,0.139404296875,0.8434705946180555,0.635528564453125,-9.693679809570312,1.517791748046875,0.9602743983268738,-3.9986934661865234,0.4095717668533325,1.2630019187927246,0.5315666695435842,-4.197080930074056,0.3583165109157562,0.39867239197095233,1.8218217293421428,-5.057509899139404,1.3988406658172607,1.781174659729004,1.5781352122624714,-5.102032661437988,0.8329458832740784,1.3971152305603027,0.1385732019941012,-4.312910397847493,-0.28982409834861755,0.14227496087551117
74.0,804.9851041666667,25.379242553710938,695.5169694010416,763.5208821614584,841.1252742513021,0.6637437608506945,0.1296047634548611,0.7842542860243057,-2.0241377088758683,1.1397976345486112,5.0555674235026045,0.7802029053370158,-4.414915402730306,0.4095717668533325,1.1004563570022583,0.4346410234769185,-4.510329405466716,0.3583165109157562,0.20005369186401367,1.38397212823232,-5.1705373128255205,1.3988406658172607,1.5187673171361287,1.1743918657302856,-5.658020496368408,0.8329458832740784,0.9524446328481039,0.05842615788181623,-4.651196638743083,-0.28982409834861755,-0.21290994435548782
77.0,857.676535581931,25.373852943762756,519.4642482659756,806.931414481921,795.052715725369,0.5968786168981483,0.12198215060763888,0.7985116464120371,-1.5812061451099535,4.940784595630787,3.980707239221644,0.697446346282959,-4.329481919606526,0.4095717668533325,1.0224087238311768,0.3736947178840637,-4.42475684483846,0.3583165109157562,0.15191398561000824,1.1794689893722534,-5.13151200612386,1.3988406658172607,1.4049181938171387,0.9838468432426453,-5.410208861033122,0.8329458832740784,0.7544277906417847,0.0077555496245622635,-4.536104679107666,-0.28982409834861755,-0.28477391600608826
80.0,821.4976063263722,25.369117663456844,833.0792713654346,779.2415661934095,812.1475517077324,0.6155795627170139,0.13313462999131942,0.7888990614149306,-1.0388607449001734,2.241380479600694,5.856416490342883,0.697446346282959,-4.233344713846843,0.4095717668533325,1.0224087238311768,0.3736947178840637,-4.288710117340088,0.3583165109157562,0.15191398561000824,1.1794689893722534,-5.066527366638184,1.3988406658172607,1.4049181938171387,0.9838468432426453,-5.027592817942302,0.8329458832740784,0.7544277906417847,0.0077555496245622635,-4.393820444742839,-0.28982409834861755,-0.28477391600608826
83.0,838.1210702749399,25.37428342379057,883.9828139085035,795.4775977501503,798.5254039275342,0.6241387261284722,0.13802761501736113,0.784820556640625,-1.0891215006510417,4.242672390407987,6.069090101453992,0.697446346282959,-4.184895992279053,0.4095717668533325,1.0224087238311768,0.3736947178840637,-4.139656702677409,0.3583165109157562,0.15191398561000824,1.1794689893722534,-4.8463185628255205,1.3988406658172607,1.4049181938171387,0.9838468432426453,-4.6823733647664385,0.8329458832740784,0.7544277906417847,0.0077555496245622635,-4.257761319478353,-0.28982409834861755,-0.28477391600608826
86.0,816.6366115472256,102.27200135206566,820.9087062737881,756.1712216108273,720.1916018755009,0.6205715603298612,0.12818739149305555,0.7847934299045138,-0.6837124294704862,3.375778198242188,5.387454562717014,0.5628121495246887,-4.151717344919841,0.4095717668533325,0.4768666923046112,0.26143738627433777,-3.97981325785319,0.3583165109157562,0.24692260225613913,1.0513612627983093,-4.582102616628011,1.3988406658172607,1.3180323441823323,0.4611594279607137,-4.561147054036458,0.8329458832740784,0.3841445247332255,-0.1211402453482151,-4.059668064117432,-0.28982409834861755,-0.1534296733637651
89.0,833.7529741923014,191.51269105942836,914.4492587880192,789.0582622625889,786.0969886127701,0.6360321044921875,0.14304775661892363,0.7701449924045138,-1.0496605767144096,2.996084810507418,5.954861111111111,0.7467800180117289,-4.142223358154297,0.4095717668533325,0.6073446869850159,0.5686368892590205,-3.872336188952128,0.3583165109157562,0.4658386707305908,1.41786789894104,-4.445372422536214,1.3988406658172607,1.5266072750091553,0.9808160364627838,-4.450954834620158,0.8329458832740784,0.8610163927078247,0.2985255147020022,-3.951396107673645,-0.28982409834861755,0.09669501334428787
92.0,833.704327705579,326.9418585850642,869.4308252579126,854.6773759890825,822.6960644844252,0.6384243435329862,0.1492682562934028,0.7692837185329862,0.3950246175130208,1.6328514946831596,5.037706163194444,0.7945620020230612,-4.142223358154297,0.4095717668533325,0.6073446869850159,0.8709328373273214,-3.8117474714914956,0.3583165109157562,0.4658386707305908,1.530849575996399,-4.3305253982543945,1.3988406658172607,1.5266072750091553,1.0606670379638672,-4.3825093905131025,0.8329458832740784,0.8610163927078247,0.5306055148442587,-3.896308263142904,-0.28982409834861755,0.09669501334428787
95.0,822.6124821433042,54.74429406875219,888.8186981983673,789.3917982835036,867.9557887463692,0.6523551555595012,0.14041353476167928,0.7561312588778409,-2.7186499701605906,3.2146114773220487,5.982766970239505,0.8211793104807535,-4.169830481211345,0.4095717668533325,0.6073446869850159,1.038831929365794,-3.746122201283773,0.3583165109157562,0.4658386707305908,1.500330924987793,-4.202235619227092,1.3988406658172607,1.5266072750091553,0.9950582186381022,-4.407490650812785,0.8329458832740784,0.8610163927078247,0.7084784011046091,-3.7761738697687783,-0.28982409834861755,0.09669501334428787
98.0,844.0639811197916,99.17997555414836,864.0009749348959,826.1523763020832,800.2144059244793,0.6583003291377315,0.14351851851851852,0.7564448603877314,-1.0118611653645833,3.3357634367766202,5.7394183123553235,0.9119058648745219,-4.182638168334961,0.4095717668533325,0.6073446869850159,1.1540656487147014,-3.743234395980835,0.3583165109157562,0.4658386707305908,1.5078946352005005,-4.185556888580322,1.3988406658172607,1.5266072750091553,0.9977946678797404,-4.427496433258057,0.8329458832740784,0.8610163927078247,0.8692041238149008,-3.7603535652160645,-0.28982409834861755,0.09669501334428787
101.0,823.7808728340345,37.97360713665302,838.901097224309,835.662157890124,848.0806837815504,0.65631103515625,0.13483683268229166,0.7565171983506943,-1.7225731743706596,4.398854573567708,5.011537339952257,0.918779452641805,-4.182638168334961,0.4095717668533325,0.6073446869850159,1.2241525252660115,-3.743234395980835,0.3583165109157562,0.4658386707305908,1.579053481419881,-4.185556888580322,1.3988406658172607,1.5266072750091553,0.9515608549118042,-4.427496433258057,0.8329458832740784,0.8610163927078247,1.0550102194150288,-3.7603535652160645,-0.28982409834861755,0.09669501334428787
104.0,832.6668695955195,182.6187334182935,853.1009503225995,823.2341673761351,819.93409768129,0.6404079861111112,0.13229031032986113,0.7537909613715278,-2.391331990559896,5.517467922634549,5.023998684353298,0.8535540103912354,-4.182638168334961,0.48441968361536664,0.6073446869850159,1.1978261470794678,-3.743234395980835,0.6573503514130911,0.4658386707305908,1.6252650419871013,-4.185556888580322,1.4985675811767578,1.5266072750091553,0.7848934133847555,-4.427496433258057,0.6291787226994833,0.8610163927078247,1.2020984490712483,-3.7603535652160645,0.38606296976407367,0.09669501334428787
107.0,839.9977917343531,34.10262134649815,929.9324534841685,826.022890464587,872.2754886235947,0.6308193630642361,0.14975179036458333,0.779311794704861,-1.1049058702256944,8.156365288628471,2.202750311957465,0.859890341758728,-4.182638168334961,0.6327191789944967,0.7330163319905599,1.044927974541982,-3.743234395980835,0.7434747616449991,0.6678945223490397,1.5566170612970989,-4.185556888580322,1.6674020687739055,1.5430659850438435,0.6811204552650452,-4.427496433258057,0.5964242617289225,0.972022294998169,1.105633020401001,-3.7603535652160645,0.6874122222264608,0.42380285759766895
110.0,837.605032335024,25.384614968911194,1290.1841267756217,796.405732936285,812.7811307109718,0.5599274811921297,0.1755608452690972,0.8250630696614584,-0.7621595594618055,6.988321940104167,4.875293307834202,1.1430136760075886,-1.0743282437324524,0.6331485708554586,1.2842122316360474,0.9852556387583414,-0.6232782403628031,0.6585843364397684,1.0061342318852742,1.4591341018676758,-0.5813858906428019,1.7317976554234822,1.65723983446757,0.8694009582201639,-1.0875779589017232,0.6764435569445292,1.233637770016988,0.6094756623109182,-0.7237503925959269,0.6113692124684652,0.8014377156893412
113.0,841.2909420625947,39.77933585878403,1310.0146882057031,796.8863567304493,810.9087765678845,0.5561794704861112,0.1917159469039352,0.8361522533275463,-2.396731906467014,4.001476146556713,4.7654950177228015,1.149470329284668,0.48255547881126404,0.611202597618103,1.2842122316360474,0.9062901735305786,0.8370742400487264,0.5921902656555176,0.8859737316767374,1.3300809462865193,1.1381911834081013,1.878778616587321,1.5547914505004883,0.8874594767888387,0.49093225598335266,0.6871512730916342,1.1330785353978474,0.2541298121213913,0.6827902992566427,0.6053948005040487,0.6556193232536316
116.0,829.6037583165471,43.157557632592464,1226.9813539550762,783.1597458913328,800.717673286064,0.5357615152994791,0.1900728013780382,0.8290930853949653,1.0119857788085938,3.9257596333821616,4.178600311279297,1.141834020614624,1.103684405485789,0.600933313369751,1.2842122316360474,0.7407192985216776,1.0180886487166088,0.5875100493431091,0.6294680734475454,1.3094119429588318,1.2550050616264343,1.905314326286316,1.4719495971997578,0.8994835217793783,0.9171121418476105,0.6781871914863586,1.0595030585924785,0.036964713130146265,0.5973783135414124,0.6057871580123901,-0.05215193827946981
119.0,815.9228707990075,329.36977549088306,1012.8994435367422,767.4468162080162,790.2033448830629,0.5369364420572916,0.21443684895833334,0.8237372504340278,1.9593387179904511,2.441177368164062,5.956107245551215,1.105021357536316,1.1235612630844116,0.600933313369751,1.25064218044281,0.5559833149115244,1.0510407288869221,0.5875100493431091,0.46971680720647174,1.2133334875106812,1.2764718135197957,1.905314326286316,1.3211682240168254,0.7899436155954996,0.9664094050725301,0.6781871914863586,0.8841782212257385,-0.09118255476156871,0.5993382930755615,0.6057871580123901,-0.10044459253549576
122.0,832.6368741861979,194.58852345784507,940.7619042968751,798.0278385416665,835.6293050130208,0.558651394314236,0.22530110677083334,0.8172370062934028,-1.51031494140625,3.1057824028862853,5.63751220703125,0.8887927134831747,1.1235612630844116,0.600933313369751,0.7860075632731119,0.37245117624600727,1.0908727248509724,0.5875100493431091,0.4529481629530589,0.9927483797073364,1.297001838684082,1.905314326286316,1.1703335841496785,0.5172334412733713,1.0614633162816365,0.6781871914863586,0.631988008817037,-0.02302764169871807,0.4672942856947581,0.6057871580123901,0.158321184416612
125.0,843.476147020128,26.593406295776365,481.01115091959633,808.672365383572,845.6459282769097,0.5562947591145834,0.210205078125,0.8161485460069443,-2.026879204644097,3.3820088704427085,5.033718532986112,0.847107470035553,1.1235612630844116,0.600933313369751,0.883364180723826,0.5448943972587585,1.283214767773946,0.5875100493431091,0.8259591062863668,1.0697909990946453,1.4522460301717122,1.905314326286316,1.31766943136851,0.5643179913361868,1.2954837481180828,0.6781871914863586,0.6592837969462076,0.19434713323911032,0.49250438809394836,0.6057871580123901,0.5144712527592977
128.0,829.9905024378292,27.760871349236904,527.8318143292662,788.7738955431369,835.8986771691849,0.5650134616427951,0.212721930609809,0.8110156589084202,-1.806064181857639,4.025152700918692,5.912077162000867,0.8616108099619547,1.1235612630844116,0.600933313369751,0.9481576681137085,0.5992972652117411,1.3076171875,0.5875100493431091,0.8774788777033488,1.1193159023920696,1.4722405672073364,1.905314326286316,1.3130305608113606,0.7084769209225973,1.3202522993087769,0.6781871914863586,0.7185019652048746,0.23030359546343485,0.5156362056732178,0.6057871580123901,0.5375672181447347
131.0,839.6172658362756,107.44740086514726,1234.696635914338,798.6070952012805,833.1749766996986,0.5693962944878472,0.21172010633680557,0.808865017361111,-1.5449990166558158,3.3348634507921004,5.315594143337673,0.7913137078285217,1.1235612630844116,0.600933313369751,0.9474294384320577,0.596673826376597,1.3076171875,0.5875100493431091,0.8664698799451193,1.155273199081421,1.4722405672073364,1.905314326286316,1.3257179657618205,0.7292487223943075,1.3202522993087769,0.6781871914863586,0.7644934058189392,0.25551579892635345,0.5156362056732178,0.6057871580123901,0.5331370631853739
134.0,835.3484411915683,533.9644030263241,1092.8278662151654,791.1850405143737,777.4488238277172,0.5753587710311989,0.21563999948937906,0.805427601134855,-0.833210800633286,3.168995404484296,4.725643890072601,0.7677775025367737,1.1235612630844116,0.600933313369751,0.8362114429473877,0.4258142759402593,1.3076171875,0.5875100493431091,0.43345031638940174,1.0967823068300884,1.4722405672073364,1.905314326286316,1.1959858338038127,0.6642106374104818,1.3202522993087769,0.6781871914863586,0.719237228234609,-0.008469525103767713,0.5156362056732178,0.6057871580123901,-0.027819643417994182
137.0,840.7082904209234,202.98228483248977,968.0340940191805,806.3372972067809,818.2231208057892,0.57745361328125,0.21856689453125,0.8001268174913193,-2.6563432481553817,3.985137939453125,5.866385565863715,0.6516849597295126,1.1235612630844116,0.600933313369751,0.5286784172058105,0.3153590261936188,1.3076171875,0.5875100493431091,0.3534380793571472,1.0322686433792114,1.4722405672073364,1.905314326286316,1.1574727694193523,0.548234224319458,1.3202522993087769,0.6781871914863586,0.5919496814409891,-0.06335288907090823,0.5156362056732178,0.6057871580123901,0.10512650012969971
140.0,841.3416152458517,175.97132894719766,479.99086076133267,813.1432040327023,845.2479765828451,0.5827195909288195,0.2172783745659722,0.8019816080729166,-0.5777910020616319,3.408593071831597,5.163150363498264,0.6310580372810364,1.1235612630844116,0.600933313369751,0.5107749303181967,0.30407218138376874,1.3076171875,0.5875100493431091,0.5752103130022684,0.9365134239196777,1.4722405672073364,1.905314326286316,1.1487184762954712,0.5430684288342794,1.3202522993087769,0.6781871914863586,0.5355642835299174,-0.041852619498968124,0.5156362056732178,0.6057871580123901,0.503080944220225
143.0,834.515355036809,415.3385930917202,537.8655962821765,798.1947944836738,797.0944871168871,0.5807235152633102,0.22048385054976852,0.7969428168402778,-0.930447048611111,4.214565135814525,5.641665988498264,0.596566915512085,1.1235612630844116,0.600933313369751,0.5139301617940267,0.3082360128561656,1.3076171875,0.5875100493431091,0.6346705754597982,0.7518833676973978,1.4722405672073364,1.905314326286316,1.186508019765218,0.527529756228129,1.3202522993087769,0.6781871914863586,0.47914289434750873,-0.05530559147397677,0.5156362056732178,0.6057871580123901,0.5783489147822062
146.0,837.153491464967,30.302432329226765,769.25001043336,801.6439046983778,880.1358445109776,0.5783860948350693,0.21587117513020834,0.8008083767361112,-2.3963165283203125,5.0630442301432295,5.868462456597221,0.455063263575236,1.1235612630844116,0.600933313369751,0.40885905424753827,0.28428852558135986,1.3076171875,0.5875100493431091,0.6518402099609375,0.6479812860488892,1.4722405672073364,1.905314326286316,1.2273265520731609,0.4916677574316661,1.3202522993087769,0.6781871914863586,0.4256478250026703,-0.08486385146776836,0.5156362056732178,0.6057871580123901,0.599741260210673
149.0,826.9651454045221,159.5311661581708,638.4410706218491,796.1663703592413,850.5025679107406,0.5754903157552084,0.21331448025173613,0.804412841796875,-1.8193562825520833,4.371522691514756,5.29648674858941,0.5679429570833842,1.1235612630844116,0.600933313369751,0.35329456130663556,0.27227245767911273,1.3076171875,0.5875100493431091,0.6478638251622518,0.5283310612042745,1.4722405672073364,1.905314326286316,1.1958880027135212,0.47216951847076416,1.3202522993087769,0.6781871914863586,0.34132959445317584,-0.09666300316651662,0.5156362056732178,0.6057871580123901,0.6306144992510477
152.0,836.5697099004241,211.8808947724834,672.0718955316933,802.240172836724,829.7959883892933,0.5747104220920138,0.21232435438368055,0.8036668565538195,-1.4725155300564239,3.7089114718967013,5.3401014539930545,0.7521670262018839,1.1235612630844116,0.600933313369751,0.5158012012640635,0.31737608710924786,1.3076171875,0.5875100493431091,0.6057356595993042,0.7090823849042257,1.4722405672073364,1.905314326286316,1.1608798503875732,0.7223796844482422,1.3202522993087769,0.6781871914863586,0.41440210739771527,-0.13942801207304,0.5156362056732178,0.6057871580123901,0.5683150887489319
155.0,828.4663973975208,360.24662455011236,652.7811024160396,791.7734418752069,825.3725023393408,0.5633205837673612,0.20192803276909724,0.8075425889756945,-1.9062533908420136,6.494437323676216,6.0695054796006955,0.8634530504544576,1.1235612630844116,0.600933313369751,0.6896967887878418,0.2942413091659546,1.3076171875,0.5875100493431091,0.3438037037849426,0.9378447731335958,1.4722405672073364,1.905314326286316,1.0596734285354614,0.9145320455233256,1.3202522993087769,0.6781871914863586,0.6584023833274841,-0.23466107745965323,0.5156362056732178,0.6057871580123901,0.10418837827940781
158.0,821.5341791553986,398.7626549745217,728.5841271033654,795.8115152055789,818.4520720966046,0.5608393351236979,0.22410103126808448,0.8081481368453415,0.3967850296585648,4.516307689525463,6.945003933376736,0.9336371719837189,1.1235612630844116,0.600933313369751,0.7667432924111685,0.3755883773167928,1.3076171875,0.5875100493431091,0.1819624826312065,1.227135161558787,1.4722405672073364,1.905314326286316,1.0805773933728535,1.1614855925242107,1.3202522993087769,0.6781871914863586,1.144298831621806,0.0316575492421786,0.5156362056732178,0.6057871580123901,-0.025379956389466923
161.0,819.0128658979366,337.5523618062337,813.4544912484976,788.0750466371195,823.6827251727764,0.5668504503038195,0.22411770290798613,0.8126627604166666,-0.12129041883680557,4.363132052951388,6.9496917724609375,0.9404550393422445,1.1235612630844116,0.600933313369751,0.7708497643470764,0.47609517971674603,1.3076171875,0.5875100493431091,0.1748002221186956,1.3288203875223796,1.4722405672073364,1.905314326286316,1.2457716067632039,1.1843027273813884,1.3202522993087769,0.6781871914863586,1.2179059584935505,0.2322408656279246,0.5156362056732178,0.6057871580123901,-0.0985125129421552
164.0,827.1067722027119,496.97289716280426,845.5731259859525,796.3652520465035,821.050764556624,0.5679072627314815,0.2186211480034722,0.8072554976851851,-1.5875752766927083,3.0103838885271994,5.726403130425347,0.9236818552017212,1.1235612630844116,0.47431160012880963,0.7649871110916138,0.5286701718966166,1.3076171875,0.5042648812135061,0.19406172136465707,1.2806460857391357,1.4722405672073364,2.186970353126526,1.295202096303304,1.0823273658752441,1.3202522993087769,0.6248104969660441,1.2132211526234944,0.33506475885709125,0.5156362056732178,0.334021657705307,-0.04416909192999204
167.0,827.014654697516,990.3151139066769,826.5032434708033,799.1711300580929,818.2896579840244,0.5710517035590277,0.21937052408854166,0.8020968967013888,-1.0824754503038194,4.371024237738715,4.908938937717014,0.9381576776504517,1.1235612630844116,0.45009779930114746,0.7409818967183431,0.6086733937263489,1.3076171875,0.49698057770729065,0.2560921907424927,1.2294819355010986,1.4722405672073364,2.2676093578338623,1.2867095867792766,1.0251569151878357,1.3202522993087769,0.697290301322937,1.1902045011520386,0.3933974305788676,0.5156362056732178,0.15546782811482748,0.03567596152424812
170.0,832.9488856232473,278.5838067084092,974.6287239270332,797.5563082181492,835.9871908178085,0.5770365397135416,0.22052341037326387,0.8082105848524305,-1.602113511827257,4.906862046983506,5.512898763020833,0.9138196706771851,1.1235612630844116,0.45869600772857666,0.6616738637288412,0.6825099388758341,1.3076171875,0.5001372694969177,0.31127803524335224,1.1242756843566895,1.4722405672073364,2.2403128147125244,1.196983774503072,0.8745632767677307,1.3202522993087769,0.739888072013855,1.031532347202301,0.45917725563049316,0.5156362056732178,0.1554434448480606,0.03425496816635132
173.0,836.6518713364163,156.15337056434097,893.785259732601,801.0715966428305,832.3810025761554,0.5614725748697916,0.21725124782986113,0.8068779839409722,-1.395836724175347,4.578630235460069,4.711218939887153,0.6758399804433187,1.1235612630844116,0.406688650449117,0.6416368881861368,0.7032070954640707,1.3076171875,0.5109006961186727,0.39703308542569477,0.9936712582906088,1.4722405672073364,2.219977060953776,1.0637705326080322,0.6088197231292725,1.3202522993087769,0.7623257438341776,0.7370290358861288,0.4402702550093333,0.5156362056732178,0.136402261753877,0.04541912426551183
176.0,827.7791851728392,307.0213440789117,848.4762956668169,800.3738922379974,827.1003157786832,0.5705193413628473,0.21690199110243058,0.806488037109375,-0.6330362955729166,4.443300035264756,4.608205159505208,0.6102307637532552,1.1235612630844116,0.27707839012145996,0.6301970481872559,0.6918056011199951,1.3076171875,0.5431199073791504,0.3684263229370117,1.072641094525655,1.4722405672073364,2.1162867546081543,1.0154939492543538,0.4956148664156596,1.3202522993087769,0.8497272729873657,0.5667270223299662,0.36406885584195453,0.5156362056732178,0.08842676877975464,0.01858396641910076
179.0,823.6020567306365,347.950489519678,774.6553311403833,801.8392358182656,843.9872615405767,0.5700728804976852,0.23927815755208334,0.8068079065393517,-1.3998243543836806,3.777092827690972,4.7835540771484375,0.5169465243816376,1.1235612630844116,0.4285190502802531,0.5529072682062784,0.5256937344868978,1.3076171875,0.3255092998345693,0.2620537579059601,0.9902752041816711,1.4722405672073364,2.256554126739502,0.9176276127497355,0.2952206879854202,1.3202522993087769,0.7744108041127523,0.3662943144639333,0.25268029669920605,0.5156362056732178,-0.06973397731781006,0.06411304192927976
182.0,831.8704779209235,897.8632478469457,841.4581580528846,808.9654353215145,817.4373067220052,0.5714518229166666,0.2418212890625,0.7956712510850693,-0.9404161241319443,2.998199462890625,4.6094512939453125,0.5286371012528738,1.1235612630844116,0.5042393803596497,0.35982824365297955,0.39758314689000446,1.3076171875,0.21670399606227875,0.37100521723429364,0.6320231854915619,1.4722405672073364,2.326687812805176,0.5445394714673361,0.10630482186873753,1.3202522993087769,0.7367525696754456,0.08398786683877309,0.2646613468726476,0.5156362056732178,-0.1488143503665924,0.2929051121075948
185.0,829.7525138659354,170.68627825419108,797.3569052671774,813.5983112354767,864.5448282877605,0.578067355685764,0.24010891384548613,0.7960442437065972,-1.8683709038628473,3.9448462592230906,5.585589938693576,0.6141868233680725,1.1235612630844116,0.5037284096082052,0.4871293306350708,0.6674657464027405,1.3076171875,0.21937841673692068,0.8134941061337789,0.49375927448272705,1.4722405672073364,2.35856024424235,0.3894834717114766,0.0691751961906751,1.3202522993087769,0.7830984195073446,0.04707975871860981,0.6057431797186533,0.5156362056732178,-0.1890213886896769,0.7321897745132446
188.0,823.5484204414564,979.2035315097907,807.7669771634615,793.0083602514023,818.1656791491387,0.5789835611979167,0.2440395779079861,0.7937513563368056,-1.3678402370876739,3.5510677761501737,4.754418267144097,0.6149019002914429,1.1235612630844116,0.5034729242324829,0.5123717188835144,0.9223202268282572,1.3076171875,0.23482075333595276,1.0317137638727825,0.7311362425486246,1.4722405672073364,2.3963570594787598,0.6873087286949158,0.09348584711551666,1.3202522993087769,0.8762190937995911,0.16635270416736603,0.8095279733339945,0.5156362056732178,-0.2604697346687317,0.9896437128384908
191.0,829.5068852314438,436.65671884712236,838.9030505585898,815.8076376645034,851.626797958842,0.5822075737847222,0.23917417173032407,0.7923753526475693,-1.534624452944155,3.6494530571831603,5.506371392144097,0.6083110173543295,1.1235612630844116,0.5034729242324829,0.5983591179052988,1.1247941652933757,1.3076171875,0.23482075333595276,1.212847888469696,0.9710157513618469,1.4722405672073364,2.3963570594787598,1.10166335105896,0.22825629512468973,1.3202522993087769,0.8762190937995911,0.3229617029428482,1.0259261727333069,0.5156362056732178,-0.2604697346687317,1.237640380859375
194.0,832.7538272172977,907.125482412485,819.3744741586539,802.6941872621195,818.1450156187399,0.5873819986979166,0.24397786458333334,0.7885877821180555,-1.3703325059678821,3.669865926106771,5.254533555772569,0.5375718772411346,1.1235612630844116,0.4696865876515706,0.6719772815704346,1.1998170216878254,1.3076171875,0.330104927221934,1.2598421573638916,1.0922413269678752,1.4722405672073364,2.032774329185486,1.2841945091883342,0.27984605232874554,1.3202522993087769,0.7708656191825867,0.48978657523790997,1.0864665905634563,0.5156362056732178,-0.11416042844454448,1.319254477818807
197.0,832.30771881353,437.28051933707115,836.7714324888798,809.8964922340418,856.5590823884792,0.5882104944299769,0.23985686125578706,0.7905895091869214,-1.2775696648491752,3.985315958658854,5.200297037760417,0.41621920963128406,1.1235612630844116,0.4076605439186096,0.783601850271225,1.0319137175877888,1.3076171875,0.6711899141470591,1.1456556121508281,1.1878581841786702,1.4722405672073364,1.382222572962443,1.3592792948087056,0.47666993737220764,1.3202522993087769,0.5416334122419357,0.659717341264089,0.9724317093690237,0.5156362056732178,0.2715075264374415,1.2812092105547588
200.0,845.626936692458,697.6275002895258,823.9100200946514,814.6529533190605,825.0051684257311,0.5886467827690973,0.24311319986979166,0.7865837944878472,-1.590482923719618,3.850555419921875,5.030229356553819,0.4714239041010539,1.1235612630844116,0.4353601435820262,0.7969805002212524,0.8895730773607889,1.3076171875,0.6472552021344503,1.058188001314799,1.180619716644287,1.4722405672073364,1.3140004475911458,1.2965153853098552,0.4991604785124461,1.3202522993087769,0.44283480445543927,0.6767194072405497,0.8499768773714701,0.5156362056732178,0.2546120087305705,1.2678608496983845
203.0,834.3516356007975,301.41884461973746,837.2929244862902,804.9490924012903,851.6073374835081,0.5879414876302084,0.23914930555555558,0.7873060438368055,-1.9252777099609375,3.6212666829427085,5.1403045654296875,0.6209793090820312,1.1235612630844116,0.42843155066172284,0.7866434653600057,0.6352948546409607,1.3076171875,0.6853481729825338,1.0249756574630737,1.1437308390935261,1.4722405672073364,1.2762909332911174,1.2157092491785686,0.4780777593453725,1.3202522993087769,0.35632554690043133,0.6359948317209879,0.6334369977315267,0.5156362056732178,0.2896515627702077,1.18485422929128
206.0,837.2842070750702,792.248991354918,833.5493531838441,806.3102268316807,833.1619254870293,0.5933905707465278,0.24213663736979166,0.7842110527886285,-1.3848707411024306,3.8772780806929976,5.12908935546875,0.6850345532099406,1.1235612630844116,0.38201313217480976,0.7591411272684733,0.5080110232035319,1.3076171875,0.7362556656201681,1.108028491338094,1.1600942611694336,1.4722405672073364,1.2510186831156414,1.2245591878890991,0.45223212242126465,1.3202522993087769,0.25814267496267956,0.6133074959119161,0.5895252227783203,0.5156362056732178,0.33797884980837506,1.1929674943288167
209.0,832.5245194733449,273.47797284167035,849.7396686886518,808.7458902342706,857.0077407393496,0.5898810492621528,0.24075656467013887,0.7877027723524307,-2.133797539605035,4.451192220052083,5.4368845621744795,0.7331452171007792,1.1235612630844116,0.3598521053791046,0.7515508135159811,0.571524461110433,1.3076171875,0.7073005239168803,1.1075865030288696,1.1094088951746623,1.4722405672073364,1.1107160250345867,1.1787458658218384,0.3690451880296071,1.3202522993087769,0.05197872780263424,0.5516611337661743,0.5805234313011169,0.5156362056732178,0.35098451375961304,1.1966394980748494
212.0,835.2179025503306,740.3639526367188,842.1710361578525,808.5056817470453,828.8794931265024,0.5912046079282407,0.2427899395978009,0.7866346571180555,-1.041353013780382,3.7544646086516202,4.749156810619213,0.7531991203625997,1.1235612630844116,0.4186777174472809,0.8042552868525187,0.6284350355466207,1.3076171875,0.6471136411031088,1.0828226804733276,0.9977185527483622,1.4722405672073364,1.0082290569941204,1.0874442259470622,0.4275783995787303,1.3202522993087769,-0.032831475138664246,0.509659469127655,0.5583083629608154,0.5156362056732178,0.348578820625941,1.1322054068247478
215.0,837.800788292518,462.81205770296924,841.8714216183394,807.5706771459336,839.3040294158154,0.587917751736111,0.24306233723958334,0.787380642361111,-2.4199930826822915,4.643927680121528,5.11995103624132,0.7829272945721945,1.1235612630844116,0.5312177141507467,0.8199270963668823,0.6314021944999695,1.3076171875,0.6447715759277344,1.0811608235041301,0.9927317897478739,1.4722405672073364,1.0711530049641926,1.0946657260258992,0.5923645893732706,1.3202522993087769,0.06782192178070545,0.530966599782308,0.5572954416275024,0.5156362056732178,0.35282368461290997,1.0829243262608845
218.0,828.5625222543571,356.13530478954317,843.5529827411359,801.0386586037661,863.3806707607172,0.5783555772569445,0.229400634765625,0.8037516276041666,-4.069044325086806,3.433931138780382,4.179950290256077,0.8045246601104736,1.1235612630844116,0.4796884059906006,0.8235252896944681,0.5700684388478597,1.3076171875,0.5293004810810089,0.8836641709009806,0.901718000570933,1.4722405672073364,1.0695188442866008,0.949744721253713,0.6853335102399191,1.3202522993087769,0.2277518461147944,0.5283965865770975,0.5114643673102061,0.5156362056732178,0.2981359163920085,0.9810641407966614
221.0,840.5842851166032,448.91784961407,846.1116578843859,811.802737244174,850.5146203978449,0.5942552354600695,0.24045817057291666,0.798004150390625,-0.6351962619357638,4.391710069444445,4.636617024739583,0.7328979770342509,1.1235612630844116,0.46877872943878174,0.7892235120137533,0.5293613870938619,1.3076171875,0.44789912303288776,0.6733760833740234,0.8122854232788086,1.4722405672073364,1.1483052571614583,0.7774807612101237,0.7287508050600687,1.3202522993087769,0.40744319558143616,0.4751812219619751,0.46215782562891644,0.5156362056732178,0.22187964618206024,0.8679152329762777
224.0,836.3388742300181,660.7387067354642,830.424062093099,808.0769254244291,825.0309941218449,0.5071377224392362,0.24928114149305555,0.8390028211805555,-5.640004475911458,7.797478569878472,2.6904042561848964,0.9660931428273519,1.1235612630844116,0.4288586974143982,1.0076001087824504,0.4345943033695221,1.3076171875,0.3375145494937897,0.5423249204953512,0.9737205505371094,1.4722405672073364,1.1737076044082642,1.0792288382848103,0.8140108187993368,1.3202522993087769,0.436458279689153,0.7316222389539083,0.34095223744710285,0.5156362056732178,0.04554362781345844,0.6012214620908102
227.0,834.5631653798251,559.3871464975755,833.3344429116478,805.9919993933228,832.4676252479511,0.5222151014539932,0.2114045884874132,0.8378796047634548,-5.563297978153936,6.036829065393519,2.3515941478587963,1.3711215257644653,1.1235612630844116,0.27675632139046985,1.411822239557902,0.5513549248377482,1.3076171875,0.28659377495447796,0.6114046772321066,1.1828991969426472,1.4722405672073364,1.1102070013682048,1.3073666890462239,1.137581706047058,1.3202522993087769,0.38804853955904645,1.1293989419937134,0.27328220506509143,0.5156362056732178,-0.03121775419761737,0.41480695207913715
230.0,846.5929354154147,560.5020184639172,831.333240998097,819.2608243502103,831.9428014510718,0.4973551432291667,0.21533542209201387,0.8490024142795138,0.7879723442925347,2.3107486300998263,8.606219821506077,1.3750033378601074,1.1235612630844116,0.188224991162618,1.4168097972869873,0.5811979174613953,1.3076171875,0.25842440128326416,0.6186723907788595,1.25399911403656,1.4722405672073364,1.0991439421971638,1.3875268300374348,1.2369606892267864,1.3202522993087769,0.34524359305699664,1.231973926226298,0.1573593815167745,0.5156362056732178,-0.16882497568925223,0.10403585806488991
233.0,836.1064140124199,495.10848255646533,841.8765869140625,806.5220258663862,838.1727247971754,0.5257737901475693,0.220672607421875,0.8347913953993055,0.1237826877170139,1.8139563666449654,5.981860690646702,1.3750033378601074,1.1235612630844116,0.30981982747713727,1.4168097972869873,0.5527151823043823,1.3076171875,0.2367530564467112,0.5904420415560404,1.274991472562154,1.4722405672073364,1.0322067936261494,1.4084476232528687,1.2327726284662883,1.3202522993087769,0.2796536386013031,1.246139407157898,0.07795225828886032,0.5156362056732178,-0.2513028681278229,-0.09273594121138255
236.0,831.6793424166166,600.629753895295,842.2743506798378,807.6636587289663,832.8054872170472,0.5295579698350695,0.23028564453125,0.8297899034288195,0.24258083767361108,2.8092024061414933,5.5066680908203125,1.3750033378601074,1.1235612630844116,0.34423396984736127,1.4168097972869873,0.5278572042783102,1.3076171875,0.2582989037036896,0.6043119231859843,1.3379198710123699,1.4722405672073364,0.8893944621086121,1.4497707684834797,1.2273873488108318,1.3202522993087769,0.2823733190695445,1.2595452467600505,0.006828622271617253,0.5156362056732178,-0.25544168551762897,-0.16760643819967905
239.0,832.7331629043971,1094.3383123935798,846.0815257537059,804.4195580115685,812.0597322904147,0.540130615234375,0.24238077799479166,0.8218180338541666,0.2924262152777778,2.7286190456814237,5.794525146484375,1.3750033378601074,1.1235612630844116,0.3491734762986501,1.4168097972869873,0.5178317328294119,1.3076171875,0.30314136544863385,0.5957942008972168,1.281147877375285,1.4722405672073364,0.8526207605997721,1.3810267448425293,1.1497944196065266,1.3202522993087769,0.40674599011739093,1.1761649052302043,-0.04104005048672358,0.5156362056732178,-0.26148638129234314,-0.15623057881991068
242.0,847.8792145557892,372.8294364611308,848.5456003042368,824.6228974171175,837.9712602664263,0.5194634331597222,0.23547024197048608,0.8215908474392362,-2.943784925672743,4.759818183051215,7.405361599392361,1.1020126740137737,1.1235612630844116,0.33854060371716815,1.174478828907013,0.4330063462257385,1.3076171875,0.3188791473706563,0.5935984055201212,1.1055254936218262,1.4722405672073364,0.8349204262097677,1.2048238515853882,0.7225099702676138,1.3202522993087769,0.5381092429161072,0.8374403317769369,0.07830621457348268,0.5156362056732178,-0.18280441065629324,0.19634395092725754
245.0,832.2785785381611,737.522776236901,855.1732881986178,809.7454669658955,854.4552463629307,0.5696173773871528,0.20638020833333334,0.8115980360243057,-2.8141869439019094,-2.0341067843967013,10.190887451171873,0.6156964302062988,1.1235612630844116,0.42973974347114563,0.6883784333864847,0.4901527563730876,1.3076171875,0.36592385172843933,0.8205882509549459,1.0933518807093303,1.4722405672073364,0.9532299240430196,1.2465560833613079,0.35636449853579205,1.3202522993087769,0.62601637840271,0.6961018443107605,0.39536018172899884,0.5156362056732178,0.06323270499706268,0.6623194615046183
248.0,840.9950958408454,915.0070089173929,838.3367917417869,811.8475285456731,822.0096368877704,0.6116807725694445,0.1748894585503472,0.7956712510850695,-2.1853044297960067,2.077306111653646,4.6642812093098955,0.628030518690745,1.1235612630844116,0.43589451909065247,0.6692067980766296,0.5650345285733541,1.3076171875,0.3755805790424347,0.8842328389485677,1.0471373399098713,1.4722405672073364,1.049925724665324,1.2645780642827351,0.40108340978622437,1.3202522993087769,0.618690013885498,0.7153339982032776,0.4647253751754761,0.5156362056732178,0.15764298538366953,0.7380492091178894
251.0,822.845663718199,1192.8671915762243,847.4581034029446,809.3898583358374,832.6240655361077,0.5917912235966435,0.18949042426215276,0.802920871310764,-1.4822769165039062,7.5027677747938375,4.506125979953342,0.7358440160751343,1.1235612630844116,0.5065680742263794,0.6284069816271464,0.7579574584960938,1.3076171875,0.40153854091962177,0.9484261870384216,1.0272592504819233,1.4722405672073364,1.111202557881673,1.2314626773198445,0.4203670819600423,1.3202522993087769,0.5900699297587076,0.7171574036280314,0.6156352758407593,0.5156362056732178,0.2726668467124303,0.8221043546994528
254.0,833.7334659204729,1347.7017731055082,855.4406691957132,813.5520248334836,841.3300431315105,0.5632358127170138,0.18439059787326387,0.8116692437065972,-1.7703416612413194,5.939907497829862,4.475284152560764,0.7714330951372782,1.1235612630844116,0.5519782900810242,0.507250060637792,0.8433400392532349,1.3076171875,0.44028138120969135,1.0341869592666626,1.0998066663742065,1.4722405672073364,1.1172186136245728,1.3087069988250732,0.49342920382817584,1.3202522993087769,0.5284557938575745,0.796720822652181,0.7180548707644144,0.5156362056732178,0.4096631209055583,0.9260285695393881
257.0,836.6126583784054,1650.0,857.1414442795973,815.2160229805189,841.8972473144531,0.5669759114583334,0.19375949435763887,0.8191053602430555,-1.5896521674262152,5.265748765733508,5.728064643012153,0.7673297127087911,1.1235612630844116,0.5510926047960917,0.47612471381823224,0.8933317263921102,1.3076171875,0.492972066005071,0.9820900360743204,1.1586754719416301,1.4722405672073364,1.0681236584981282,1.3889526923497517,0.5414121548334757,1.3202522993087769,0.4260956446329753,0.8681039810180664,0.7537277340888977,0.5156362056732178,0.4475565056006114,0.8786084254582723
260.0,825.9866599058493,1081.6305046081543,862.8961205115685,807.7463151980669,869.2551832932692,0.5583733452690972,0.19013129340277776,0.8393690321180557,-8.178795708550346,12.349607679578995,3.953984578450521,0.7642093896865845,1.1235612630844116,0.4991773764292399,0.4026296138763428,0.9765640695889791,1.3076171875,0.5072278380393982,0.782564640045166,1.155992070833842,1.4722405672073364,0.9161021113395691,1.3343876600265503,0.5207373599211375,1.3202522993087769,0.2827210525671641,0.8612708449363708,0.741786777973175,0.5156362056732178,0.4544053276379903,0.5935786366462708
263.0,848.1426681127305,972.4725249707699,855.2662682166466,829.2669278658353,836.7366411258013,0.46487765842013884,0.13700697157118055,0.867401123046875,-9.20228746202257,10.06378173828125,2.0332760281032987,0.7642093896865845,1.1235612630844116,0.48777899146080017,0.4026296138763428,1.0954766273498535,1.3076171875,0.5064974228541056,0.782564640045166,1.238440990447998,1.4722405672073364,0.7177208463350931,1.3343876600265503,0.46884945034980774,1.3202522993087769,0.31668612360954285,0.8612708449363708,0.846937358379364,0.5156362056732178,0.5059028367201487,0.5935786366462708
266.0,843.5141335511818,1649.907015286959,838.2088849972456,821.9315310747196,826.430916810647,0.4790174696180556,0.11225721571180554,0.8703545464409722,-3.6736043294270835,5.445607503255208,5.031890869140625,0.7642093896865845,1.1235612630844116,0.4288323223590851,0.4026296138763428,1.0954766273498535,1.3076171875,0.4984973768393199,0.782564640045166,1.238440990447998,1.4722405672073364,0.8088178634643555,1.3343876600265503,0.46884945034980774,1.3202522993087769,0.38964129487673443,0.8612708449363708,0.846937358379364,0.5156362056732178,0.48055410385131836,0.5935786366462708
269.0,834.1795795147236,198.83582322414102,872.7575808794071,816.4454783904248,879.188970321264,0.4726121690538194,0.11414704499421297,0.8825095847800926,-1.8337560583043981,3.6225128173828125,5.2315492983217595,0.7642093896865845,1.1235612630844116,0.33593114217122394,0.4026296138763428,1.0954766273498535,1.3076171875,0.5945053100585938,0.782564640045166,1.238440990447998,1.4722405672073364,1.149328390757243,1.3343876600265503,0.46884945034980774,1.3202522993087769,0.3355671564737956,0.8612708449363708,0.846937358379364,0.5156362056732178,0.48496994376182556,0.5935786366462708
272.0,832.1907583383413,258.03559583272687,854.8065177721855,807.4312000763722,846.0556992750902,0.4800821940104167,0.11257256401909722,0.8788689507378473,-0.8826785617404515,3.0974748399522567,5.181842380099827,0.6386002898216248,1.1235612630844116,0.48586498697598773,0.4026296138763428,1.0038467645645142,1.3076171875,0.6141503850618998,0.782564640045166,0.9922961990038554,1.4722405672073364,1.3635092576344807,1.3343876600265503,0.37542476256688434,1.3202522993087769,0.2820485432942708,0.8612708449363708,0.7811277707417806,0.5156362056732178,0.4941268463929494,0.5935786366462708
275.0,830.227761293069,361.90898826794745,846.3811387282152,801.3975767477965,843.0853740985576,0.4778951009114583,0.12478976779513888,0.87860107421875,-0.4174550374348958,4.1060129801432295,5.841047498914931,0.4661747217178345,1.1235612630844116,0.5293410420417786,0.3577696780363719,0.6826663215955099,1.3076171875,0.5884695053100586,0.5495674212773641,0.42122570673624676,1.4722405672073364,1.4726428588231404,0.8904445568720499,0.20469975968201956,1.3202522993087769,0.2711045444011688,0.3110406498114268,0.5093225240707397,0.5156362056732178,0.43333951632181805,0.6342766086260477
278.0,830.4550593449518,495.1033160869892,855.0079830854366,807.6791561811398,831.4778778858675,0.4846327039930556,0.12860446506076392,0.8745083279079862,-0.4922231038411458,2.0706600613064237,5.224210951063369,0.5208515326182047,1.1235612630844116,0.5270707011222839,0.383625328540802,0.5770985086758932,1.3076171875,0.5875235001246134,0.524143397808075,0.46294938524564105,1.4722405672073364,1.5026942491531372,0.9370301167170206,0.3549996614456177,1.3202522993087769,0.2433535655339559,0.441779484351476,0.37212394674619037,0.5156362056732178,0.3449632028738658,0.4866398175557454
281.0,837.8421177008213,484.05372228377905,850.3174571501903,811.6671377328726,831.5140419984476,0.4906005859375,0.13071017795138892,0.87103271484375,-1.1103057861328127,3.123228285047743,5.326393975151909,0.5292561054229736,1.1235612630844116,0.5265649557113647,0.3871849477291107,0.5395829677581787,1.3076171875,0.5652475953102112,0.5054501096407572,0.42261140545209247,1.4722405672073364,1.468993107477824,0.9373825391133627,0.437086949745814,1.3202522993087769,0.15385122100512186,0.516871045033137,0.2869995137055715,0.5156362056732178,0.28696263829867047,0.38571758071581524
284.0,840.0375655736678,1055.3728729127308,848.0910128079928,805.313233986879,821.1205013959835,0.4940829806857639,0.13820393880208334,0.8673231336805555,-0.3347947862413195,3.1747351752387156,4.6069590250651045,0.5122585693995158,1.1235612630844116,0.5036478042602539,0.4171986977259318,0.4751218756039937,1.3076171875,0.3978345990180969,0.46991979082425434,0.42550904552141827,1.4722405672073364,1.3354814847310383,0.9258195161819458,0.4849866032600403,1.3202522993087769,0.19577325383822122,0.5992114941279093,0.20043827593326569,0.5156362056732178,0.0690172091126442,0.31493019064267475
287.0,834.2673965845353,216.993520400463,853.6752147185498,813.8109318659857,861.9559474847256,0.4952867296006944,0.13668484157986113,0.8670281304253472,-1.6731431749131944,3.7857564290364576,5.119951036241319,0.45094581445058185,1.1235612630844116,0.4771485924720764,0.40838220715522766,0.5612021386623383,1.3076171875,0.2588711430629094,0.7351014415423075,0.4176137447357178,1.4722405672073364,1.1219497124354045,0.9065537254015604,0.47630218664805096,1.3202522993087769,0.2324488510688146,0.6124729712804159,0.12889972080787024,0.5156362056732178,-0.09509240463376045,0.27819298207759857
290.0,834.9854407677284,610.2329273712941,848.8865403395433,811.8737675593449,842.4499856019632,0.5042012532552084,0.1400824652777778,0.8660820855034722,-0.9566158718532987,3.575990464952257,5.154427422417534,0.44903193910916644,1.1235612630844116,0.2720506191253662,0.4591980477174123,0.8412209947903951,1.3076171875,0.20919247468312582,1.0652435223261516,0.5536358753840128,1.4722405672073364,1.0646040042241414,0.9895821213722229,0.48990243673324585,1.3202522993087769,0.22816836337248483,0.6790412267049154,0.33993732929229736,0.5156362056732178,0.036964863538742065,0.5461185971895853
293.0,836.6539846567007,649.9422392233824,855.0234805376102,815.7687597030248,839.8154437725361,0.49886406792534715,0.1423317238136574,0.8630438910590277,-1.6220516628689234,3.8300634313512734,5.3435629385489,0.39255135258038837,1.1235612630844116,0.22940854728221893,0.5010824402173361,0.8776764273643494,1.3076171875,0.16087844967842102,1.1068315903345745,0.7357881466547648,1.4722405672073364,1.163710077603658,1.138584574063619,0.4770052532354991,1.3202522993087769,0.11467271794875462,0.6875292658805847,0.3948158025741577,0.5156362056732178,0.07050426055987676,0.6096321741739908
296.0,830.7443409455128,752.7824789193961,847.8482212164463,806.2172452486478,846.9442083896735,0.50408935546875,0.1428154839409722,0.8632982042100693,-0.7435268825954862,3.289794921875,5.088382297092014,0.30237241586049396,1.1235612630844116,0.28203028440475464,0.5074498057365417,0.8775569995244344,1.3076171875,0.15108745793501535,1.109337290128072,0.8065775831540426,1.4722405672073364,1.169543743133545,1.1965779860814412,0.39304319024086,1.3202522993087769,0.03966838990648588,0.6511340737342834,0.4115748107433319,0.5156362056732178,0.06999179969231288,0.6321892340977987
299.0,846.4276333070412,1528.3460124028036,829.2793298965844,816.5080885980069,822.0216196226462,0.5092705620659723,0.15343560112847224,0.8575642903645834,-0.7875569661458334,3.108690049913194,4.984537760416667,0.276120920976003,1.1235612630844116,0.29241764545440674,0.5314430594444275,0.8784740169843038,1.3076171875,0.15973509848117828,1.1395366191864014,0.9350401560465494,1.4722405672073364,1.170248031616211,1.2194339831670125,0.26458163062731427,1.3202522993087769,-0.032852948332826294,0.5430209040641785,0.44848188757896423,0.5156362056732178,0.06878431886434555,0.6716938813527426
302.0,834.2407418744992,1556.713554649353,851.6144829539763,803.2927939390524,853.3394385391626,0.5081549750434028,0.15019734700520834,0.8562893337673612,-2.199842664930556,4.5895131429036455,5.450176662868923,0.5739067594210306,1.1235612630844116,0.17552717526753744,0.5372737447420756,0.8965670069058737,1.3076171875,0.1939100076754888,1.0887600183486938,1.1414323250452678,1.4722405672073364,1.2383091847101848,1.2707579533259075,0.27255868415037793,1.3202522993087769,0.16069416577617326,0.5390016436576843,0.669101615746816,0.5156362056732178,0.14184192816416422,0.655825138092041
305.0,838.1873557587975,40.177671072829476,863.2895803207006,831.7279909574069,872.0434140588483,0.5015394422743055,0.14579942491319445,0.8605516221788195,-1.706539577907986,4.244832356770833,5.512566460503472,0.6815146803855896,1.1235612630844116,0.2671750287214915,0.48889321088790894,0.9869165023167928,1.3076171875,0.29288430015246075,0.7055277228355408,1.3914364178975422,1.4722405672073364,1.2833922704060872,1.279364784558614,0.302896906932195,1.3202522993087769,0.5113221704959869,0.40058080355326336,0.9128645857175192,0.5156362056732178,0.278028945128123,0.3847540219624837
308.0,835.6621586726261,131.36047698901248,849.6820733486078,812.5504823342347,849.6459061060195,0.509720413773148,0.14265724464699073,0.8615530508535881,-1.7876490840205441,3.6124052824797452,5.345224451135706,0.6834403276443481,1.1235612630844116,0.3341372807820638,0.49142876267433167,1.0046591361363728,1.3076171875,0.3047473231951396,0.6463671922683716,1.4559917449951172,1.4722405672073364,1.2922366857528687,1.4406988223393757,0.27982362111409503,1.3202522993087769,0.6506583491961161,0.39117273688316345,0.9406760533650717,0.5156362056732178,0.27604512373606366,0.33528706431388855
311.0,839.7185317132412,161.74122341718427,841.5096073717949,810.806107052534,840.6731672551082,0.5099216037326388,0.13994004991319445,0.8584425184461805,-1.9452158610026042,3.8156636555989585,6.3191477457682295,0.6816287239392599,1.1235612630844116,0.32070739070574444,0.6090593735376993,1.000348190466563,1.3076171875,0.26440005501111347,0.5617838700612386,1.4562710523605347,1.4722405672073364,1.3149173657099407,1.6080503861109416,0.28271082043647766,1.3202522993087769,0.6637367407480875,0.4691147307554881,0.9381133516629537,0.5156362056732178,0.27553824583689374,0.203546404838562
314.0,831.8648212884664,168.4300738359109,857.0425637493204,805.4549266922314,841.5186683738625,0.5123704698350694,0.13745659722222223,0.8577019585503471,-1.7275577121310761,4.061982896592881,5.1606580946180545,0.6713655789693197,1.1235612630844116,0.34179621934890747,0.7122815251350403,0.923235297203064,1.3076171875,0.21560335656007132,0.20790328085422516,1.3678303559621174,1.4722405672073364,1.315213640530904,1.519378622372945,0.26657211283842724,1.3202522993087769,0.6296104788780212,0.45157017310460407,0.8330965240796407,0.5156362056732178,0.207823283970356,-0.13832725087801614
317.0,836.499017177484,246.81553503183218,853.3859315529847,809.9779271834936,844.1133641952123,0.5075988769531251,0.140716552734375,0.8593716091579862,-1.1975351969401042,4.562098185221354,5.232103135850694,0.44172566135724384,1.1235612630844116,0.38166090846061707,0.7127880255381266,0.5085391302903494,1.3076171875,0.09947437047958374,0.22357656061649323,1.0697014133135478,1.4722405672073364,1.2584917545318604,1.3515127897262573,0.15747268497943878,1.3202522993087769,0.4651896258195241,0.3455818196137746,0.3273852616548538,0.5156362056732178,-0.20326439291238785,-0.15065795679887137
320.0,836.922606639373,255.008452635545,842.0160624186198,812.0648999336439,839.71729298127,0.5086296929253472,0.14455498589409724,0.8576897515190972,-1.3283793131510417,4.269256591796875,5.156504313151042,0.2307985226313273,1.1235612630844116,0.3495705823103587,0.7338484326998392,0.3732851246992747,1.3076171875,0.07845447336634,0.22390258808930716,0.5658879280090332,1.4722405672073364,1.1497604449590046,1.0845135847727458,0.16345147788524628,1.3202522993087769,0.1272364929318428,0.30619077881177265,-0.008347565385823449,0.5156362056732178,-0.2961217264334361,-0.2087776263554891
323.0,838.1931422411275,316.34802782205435,845.7598679710453,811.4097095300398,844.9693685913086,0.5113050672743057,0.14422946506076392,0.8592766655815973,-0.9474775526258682,3.3392249213324656,4.642266167534722,0.2426151136557261,1.1235612630844116,0.35360637307167053,0.6973687807718912,0.4240176777044932,1.3076171875,0.13029617071151733,0.27472123503685,0.5978589653968811,1.4722405672073364,1.0941540002822876,0.885225752989451,0.2886532594760259,1.3202522993087769,0.10389075428247452,0.27633775273958844,-0.0015354898835842807,0.5156362056732178,-0.2359318087498347,-0.15467104812463126
326.0,841.2234248234676,1176.6753825486012,816.6320637081831,808.7769904346956,796.3991733022837,0.5223931206597223,0.15699259440104166,0.8512200249565972,-0.3148566351996528,2.5421142578125,4.688788519965278,0.2751542131106059,1.1235612630844116,0.3619476854801178,0.4233311514059703,0.4955322543780009,1.3076171875,0.14865541458129883,0.33979814251263935,0.7283143599828085,1.4722405672073364,1.0424169301986694,1.0639188289642334,0.35412148634592694,1.3202522993087769,0.13423307736714682,0.35455552736918133,0.026211267337203026,0.5156362056732178,-0.22694473465283713,-0.12883615493774414
329.0,855.4948591574645,646.046385675414,832.0568771362305,827.5217566856971,838.4641570392837,0.5208367241753472,0.1579872413917824,0.8511069968894676,-1.601421214916088,3.8513861762152772,5.093089916087963,0.48762746651967365,1.1235612630844116,0.3304685155550639,0.30891327063242596,0.6967339515686035,1.3076171875,0.2368868589401245,0.36460814873377484,0.7742743293444315,1.4722405672073364,1.1037372748057048,1.1540369590123494,0.45099754134813946,1.3202522993087769,0.1765575259923935,0.4216875036557515,0.29531912008921307,0.5156362056732178,-0.11034613971908887,-0.12310301264127095
332.0,827.1364794348041,44.20869695630847,858.8551952003413,811.7743271395692,881.9561093974318,0.519866943359375,0.15233357747395834,0.8520609537760416,-2.865693834092882,5.563574896918403,6.23565673828125,0.5941079258918762,1.1235612630844116,0.35050877928733826,0.3044420083363851,1.0036137501398723,1.3076171875,0.4020015597343445,0.34575823942820233,0.9626272519429525,1.4722405672073364,1.331335226694743,1.2411484718322754,0.534659743309021,1.3202522993087769,0.387920618057251,0.46126534541447956,0.8219104806582133,0.5156362056732178,0.1339139441649119,-0.12110831588506699
335.0,829.5355498485075,351.34497999533625,869.1931981795873,824.0959918682393,873.6925901755308,0.5146687825520834,0.14924791124131945,0.8546244303385416,-1.320071750217014,4.379747178819444,5.7558949788411455,0.6008561253547668,1.1235612630844116,0.3503296772638957,0.3236890236536662,1.093104640642802,1.3076171875,0.48288559913635254,0.40649070342381793,1.2248139381408691,1.4722405672073364,1.4351071119308472,1.3898123105367024,0.4932035505771637,1.3202522993087769,0.5187435746192932,0.4595196644465129,1.0267088015874226,0.5156362056732178,0.22213728725910187,-0.08005100985368092
338.0,837.3048745179789,409.3462933271359,853.7062080578926,820.6969088040865,846.179676544972,0.5174357096354166,0.1484002007378472,0.8529154459635416,-1.3557942708333333,3.408177693684896,5.321409437391494,0.6008561253547668,1.1235612630844116,0.35282153884569806,0.36031298836072284,1.0923524300257366,1.3076171875,0.49353642265001935,0.41495392719904584,1.285045067469279,1.4722405672073364,1.4889881610870361,1.5575164159138997,0.44466763734817505,1.3202522993087769,0.6124223073323568,0.587290624777476,1.0447691281636555,0.5156362056732178,0.23032183945178986,0.16015719374020895
341.0,836.0909149952423,794.465104323167,844.103032821264,814.7356082231571,824.0753283378405,0.5221286349826388,0.15300157335069445,0.852020263671875,-0.46273125542534727,3.081690470377604,4.537590874565972,0.6003126303354899,1.1235612630844116,0.3626462121804555,0.14927461991707483,1.0820947885513306,1.3076171875,0.4963206946849823,0.277582585811615,1.2732199827829997,1.4722405672073364,1.5175172885258992,1.418235182762146,0.3943435152371724,1.3202522993087769,0.6605079770088196,0.472179373105367,1.0423964659372966,0.5156362056732178,0.2567196736733119,0.07288483468194802
344.0,850.1624873234676,1017.9778336378243,813.630129300631,824.1424795297476,810.8457766801884,0.5242377387152778,0.16026475694444445,0.84649658203125,-1.3528866238064234,3.879216512044271,4.870308770073784,0.584902842839559,1.1235612630844116,0.3795533279577891,0.3002995153268178,1.027386486530304,1.3076171875,0.44049448768297833,0.4580014844735463,1.2589926719665527,1.4722405672073364,1.464053471883138,1.2702329953511555,0.30683576067288715,1.3202522993087769,0.6625681320826212,0.40784425536791485,1.0040451685587566,0.5156362056732178,0.23630861937999725,0.08144020475447178
347.0,833.9217036946615,169.77296804672633,850.7195644280849,814.1878254895332,858.2138622733875,0.52313232421875,0.15715196397569445,0.8499721950954862,-2.547514173719618,5.091289944118924,6.099412706163194,0.4892335534095764,1.1235612630844116,0.41977866490681964,0.32073599100112915,0.9664002855618795,1.3076171875,0.41850194334983826,0.5233397483825684,1.237516721089681,1.4722405672073364,1.4807684421539307,1.2566708326339722,0.37464383244514465,1.3202522993087769,0.7035149733225504,0.4109448790550232,0.8598336776097616,0.5156362056732178,0.14972511927286783,0.1143297478556633
350.0,829.2937903458032,360.69689023433585,868.8758130195814,814.1338923840644,877.5235257036258,0.5226203070746528,0.149871826171875,0.8508707682291666,-1.3448164198133679,3.7618425157335067,5.463409423828125,0.45871779322624207,1.1235612630844116,0.4211250940958659,0.32209984461466473,1.031321406364441,1.3076171875,0.490740438302358,0.5264918208122253,1.1749611298243205,1.4722405672073364,1.565155307451884,1.1266287366549175,0.4400777419408162,1.3202522993087769,0.7081849972407023,0.37315746148427326,0.7920584877332052,0.5156362056732178,0.16939893861611685,0.06221741313735644
353.0,837.5218357183994,622.576312511951,855.0558866487517,816.9423296735004,843.578945417782,0.5207734284577547,0.15230419017650462,0.8517908166956017,-1.1859046088324654,3.5992516411675353,4.996168348524306,0.4784080982208252,1.1235612630844116,0.48749008774757385,0.37780798474947613,1.0407925049463909,1.3076171875,0.4816390077273051,0.5588949918746948,1.1491425434748332,1.4722405672073364,1.5641368230183919,0.6259276866912842,0.41647090514500934,1.3202522993087769,0.706542452176412,0.21691425144672394,0.7982298930486044,0.5156362056732178,0.13802949090798697,0.15982718765735626
356.0,845.1676550378334,1032.3659270671144,831.5713387869455,819.9920193332059,817.2752872635989,0.5257432725694445,0.1603020562065972,0.8449673122829862,-0.7917107476128473,2.740665011935764,4.954215155707465,0.5101521710554758,1.1235612630844116,0.5790826678276062,0.26786603530248004,0.9942869544029236,1.3076171875,0.4583802322546641,0.34791600704193115,1.1812322934468586,1.4722405672073364,1.5679571628570557,0.7004671891530355,0.35840462644894916,1.3202522993087769,0.7838316957155863,0.17668539782365164,0.7736970980962118,0.5156362056732178,0.09689262260993321,0.10740311071276665
359.0,842.7500956142925,588.1706442140106,852.972421350351,822.8648130535644,850.8706899417044,0.5304056803385416,0.16186862521701387,0.8448079427083334,-1.7882029215494792,4.238518608940972,5.324317084418404,0.6371574203173319,1.1235612630844116,0.662722110748291,0.29533151785532635,0.8902682264645895,1.3076171875,0.2804337938626607,0.7904868125915527,1.0663451552391052,1.4722405672073364,1.5257056951522827,0.8935383558273315,0.16076100865999857,1.3202522993087769,0.8849177360534668,0.2600507140159607,0.557498832543691,0.5156362056732178,0.07758953794836998,0.5486482282479604
362.0,830.9322211255602,318.70513053089803,854.9806209031673,813.8298727616965,887.4094419415973,0.5246751573350695,0.15121120876736108,0.8483106825086805,-2.2733645968967013,4.880277845594618,5.9926605224609375,0.7164900501569113,1.1235612630844116,0.6753906607627869,0.4019750157992045,0.9938679337501526,1.3076171875,0.22992139557997385,1.0500551859537761,0.9238695899645487,1.4722405672073364,1.5110825697580974,1.0500034093856812,0.17149558663368225,1.3202522993087769,0.9337610403696696,0.2205472638209661,0.4189618130524953,0.5156362056732178,0.2546216547489166,0.8200626373291016
365.0,833.771483592498,595.0248902149689,860.1582625951522,813.2633596567007,850.1263255583934,0.5251996075665509,0.1521866409866898,0.8476946795428241,-1.1566896791811343,4.096736201533565,5.634050722475405,0.715433398882548,1.1235612630844116,0.6751028100649515,0.5563031236330668,1.0255612134933472,1.3076171875,0.27134281396865845,1.097527265548706,0.9755686521530151,1.4722405672073364,1.4878761768341064,1.1419705549875896,0.23237123092015585,1.3202522993087769,0.9094735582669576,0.3466531236966451,0.4341541826725006,0.5156362056732178,0.30654585361480713,0.8645385106404623
368.0,839.0715668507111,664.0757943177833,851.2266376201924,817.3236584785658,848.4422849997496,0.5258687337239584,0.151947021484375,0.8569064670138888,-1.958092583550347,8.610373602973091,5.918307834201388,0.7161605358123779,1.1235612630844116,0.6484723687171936,0.5682925581932068,1.0291991631189983,1.3076171875,0.28658145666122437,1.102316935857137,0.9368454019228617,1.4722405672073364,1.4302990436553955,1.1696398655573528,0.2848936418692271,1.3202522993087769,0.8667690753936768,0.5177251696586609,0.44173578421274823,0.5156362056732178,0.2975352903207143,0.8715587457021078
371.0,837.7372845490991,672.3939212657473,844.0307346978594,810.7690225644748,845.7763635761461,0.5041020711263021,0.1506500244140625,0.8545811971028646,-0.8818478054470487,3.2254113091362853,5.413900304723669,0.7342293461163839,1.1235612630844116,0.5175273219744364,0.5653992096583048,0.9459162354469299,1.3076171875,0.2917810579140981,1.0041700998942058,0.8133522868156433,1.4722405672073364,1.2533100446065266,1.1446623802185059,0.28148676951726276,1.3202522993087769,0.6626417438189188,0.5059972802797953,0.3548222581545512,0.5156362056732178,0.243354931473732,0.7729817032814026
374.0,838.5085003192607,1260.3817962499763,822.9440229366987,813.7437783265726,808.562506260016,0.522250705295139,0.156982421875,0.8497721354166666,-0.48931545681423616,2.773064507378472,4.227303398980035,0.7447015643119812,1.1235612630844116,0.34691888093948364,0.5327336589495341,0.6203594406445821,1.3076171875,0.18461731572945914,0.605622261762619,0.6250271995862325,1.4722405672073364,0.9356046120325724,1.0001845161120098,0.2760397692521413,1.3202522993087769,0.3842558264732361,0.5143508811791738,0.17294947803020477,0.5156362056732178,-0.056691707422335945,0.3439822445313136
377.0,847.2903184157152,781.6798123090697,851.5365819686498,828.3732511080228,839.3143623547676,0.5242716471354166,0.16153971354166666,0.8478800455729166,-1.9153086344401042,4.091474745008681,5.521206325954862,0.7154494524002075,1.1235612630844116,0.5170064767201742,0.4716272751490275,0.5007270673910776,1.3076171875,0.1493540108203888,0.4988008737564087,0.3747553626696269,1.4722405672073364,1.1731792291005452,0.8857606252034506,0.36419544617335003,1.3202522993087769,0.5363340874512991,0.6142523288726807,0.24103338519732156,0.5156362056732178,-0.20656723280747732,0.29620765646298725
380.0,835.7577725770547,601.9027653191184,859.6001549016415,816.3523946064929,863.9322130022007,0.522240841027462,0.1507528285787563,0.8501667061237375,-1.8255869547526042,4.0164989895290795,5.736787584092883,0.7214305400848389,1.1235612630844116,0.6955927610397339,0.569608747959137,0.7092312574386597,1.3076171875,0.20999425649642944,1.0306944052378337,0.6575023531913757,1.4722405672073364,1.6243565479914348,1.0082542896270752,0.4523149828116099,1.3202522993087769,0.7262404958407084,0.7331467072168986,0.6520523031552633,0.5156362056732178,0.20129023989041647,0.8247313102086385
383.0,841.0500613481571,648.5784743871444,843.5864539513221,819.7928991073218,847.2489897899139,0.5217352973090278,0.1469794379340278,0.8511488172743055,-1.7242346869574652,3.4775458441840272,5.520375569661458,0.7203768094380697,1.1235612630844116,0.6955927610397339,0.6125012238820394,0.6856364011764526,1.3076171875,0.18644284705320993,1.0396840174992878,0.6533119877179464,1.4722405672073364,1.6248544851938884,0.9589840769767761,0.4009019732475281,1.3202522993087769,0.7003521124521891,0.7397895654042562,0.6628928184509277,0.5156362056732178,0.19454868137836456,0.8393228650093079
386.0,832.1132687299679,622.1607051751553,848.9175336788862,811.7342936197916,841.8610871143829,0.5284774215133101,0.15765945999710648,0.8572297272858797,-1.0816446940104167,5.8410474989149295,2.432177508318866,0.5488473077615103,1.1235612630844116,0.6955927610397339,0.651811420917511,0.6530776818593343,1.3076171875,0.21129309634367624,1.0418272018432617,0.6734430193901062,1.4722405672073364,1.6415869394938152,0.9490147829055786,0.4100454847017924,1.3202522993087769,0.6784090995788574,0.7309717138608297,0.6564279794692993,0.5156362056732178,0.18760256469249725,0.8361220558484396
389.0,846.4121336325621,772.9496549948668,840.2132067558092,826.498072697566,845.5701145269932,0.4998072064112103,0.1567116389198909,0.8498365614149305,-1.1917199028862848,4.270087348090278,5.8206939697265625,0.5311475793520609,1.1235612630844116,0.6951655149459839,0.7043113907178243,0.6006619334220886,1.3076171875,0.2185560017824173,0.9808916052182516,0.8030628760655721,1.4722405672073364,1.5513598124186199,0.9877803524335226,0.5717530051867167,1.3202522993087769,0.5200278262297312,0.6976202726364136,0.6065845688184103,0.5156362056732178,0.15160278479258218,0.7524747451146444
392.0,834.6496621156351,590.3860217363407,842.1865304800181,809.957264435597,847.2334931202423,0.518313937717014,0.15716891818576392,0.8506198459201388,-1.3213178846571179,2.2808414035373263,6.061613294813367,0.5220641493797302,1.1235612630844116,0.8701469302177429,0.6902183890342712,0.4105815291404724,1.3076171875,0.19427829484144846,0.6671182513237,0.8486130634943644,1.4722405672073364,1.2555164098739624,0.9694284995396932,0.5910234848658243,1.3202522993087769,0.36946062246958417,0.5643867254257202,0.38215214014053345,0.5156362056732178,-0.10836110884944598,0.3972375939289729
395.0,842.3415026542467,653.145021096254,849.5425939315404,821.5647583007812,851.5004233335836,0.5240003797743055,0.1565212673611111,0.8476359049479166,-1.7823876274956596,3.895000881618923,5.323901706271702,0.4761902292569478,1.1235612630844116,0.9498445987701416,0.6295789480209351,0.266769140958786,1.3076171875,0.2570273180802663,0.3144771059354146,0.9126492540041605,1.4722405672073364,1.1042534907658894,1.0658914844195049,0.674195388952891,1.3202522993087769,0.5772348244984945,0.6017162799835205,0.15993808209896088,0.5156362056732178,-0.3269796868165334,-0.028206898520390194
398.0,848.4629469651442,889.1124259753105,822.9285215720153,820.6194262382311,822.0296826484877,0.5343899197048612,0.15491739908854166,0.8425259060329862,-0.18068949381510416,1.9020165337456596,3.9984300401475696,0.4436703423659007,1.1235612630844116,0.9498445987701416,0.5902498165766398,0.30432982246081036,1.3076171875,0.27806275089581806,0.27101585268974304,1.0127262274424236,1.4722405672073364,1.0435648361841838,1.228214422861735,0.7206716537475586,1.3202522993087769,0.611339271068573,0.6594609022140503,0.1762913167476654,0.5156362056732178,-0.2793208658695221,-0.09083084017038345
401.0,884.8890938626804,652.7158454934145,852.9997377366286,820.7611744729066,815.1511397611179,0.5363301595052083,0.16879747178819446,0.8390455457899306,-1.4185163709852429,4.012552897135417,5.662850273980034,0.5442237854003906,1.1235612630844116,0.9508182207743326,0.5810062289237976,0.46614527702331543,1.3076171875,0.30366528034210205,0.4580557644367218,1.0582301616668701,1.4722405672073364,1.1551669438680012,1.2734808524449666,0.7060088117917379,1.3202522993087769,0.6812140345573425,0.6851446429888407,0.2958504954973857,0.5156362056732178,-0.12451360871394475,0.11949364561587572
404.0,859.4712117513021,453.9992471841665,865.5719940968048,817.1221970778246,886.9428014510718,0.5343187120225695,0.15887790256076387,0.8412373860677084,-2.136705186631944,4.654312133789063,5.907092624240452,0.6616819302241007,1.1235612630844116,0.9513050317764282,0.5708848436673483,0.8655573129653931,1.3076171875,0.39403025309244794,0.9305617213249207,1.266212781270345,1.4722405672073364,1.5358148018519084,1.2645544211069744,0.5303999682267507,1.3202522993087769,0.810683012008667,0.6646965543429056,0.5667968690395355,0.5156362056732178,0.10335665941238403,0.5479329327742258
407.0,852.3566984988482,710.8886633770284,850.4273838141025,823.7352065179288,868.4904459948417,0.5363667805989584,0.15844387478298613,0.8414713541666666,-0.8585866292317709,3.654912312825521,6.523098415798611,0.5637233058611552,1.1235612630844116,0.9252411921819051,0.550419827302297,0.9829650322596232,1.3076171875,0.3974131445089976,1.0686047871907551,1.4233558972676594,1.4722405672073364,1.65827480951945,1.2188021341959636,0.3779974679152171,1.3202522993087769,0.7565536300341288,0.6082294980684916,0.6871431867281595,0.5156362056732178,0.21129478017489114,0.7267321745554606
410.0,836.8482171161359,682.2950699400291,850.9179287484976,824.3416692332734,848.5406384590345,0.5339084201388888,0.15587022569444442,0.8412272135416666,-1.6453128390842011,4.675081041124131,5.6611887613932295,0.5433401068051656,1.1235612630844116,0.32538362344106037,0.5603521466255188,0.9947903752326965,1.3076171875,0.34142056107521057,1.0664149522781372,1.425618052482605,1.4722405672073364,1.6651721000671387,1.0448137521743774,0.11740289628505707,1.3202522993087769,0.5933869083722433,0.504288931687673,0.7178548177083334,0.5156362056732178,0.2359519600868225,0.7363396286964417
413.0,860.027842018821,721.9797364206024,1034.2571441465436,859.1474969297466,840.6004868386008,0.5493598090277777,0.16463521321614583,0.8314775254991319,-0.9682464599609375,3.625005086263021,5.4447767469618045,0.48751696944236755,1.1235612630844116,0.32740046580632526,0.5326253573099772,0.8396080334981283,1.3076171875,0.16612385710080466,0.9449402491251627,1.3131372133890789,1.4722405672073364,1.423757791519165,0.9038520654042562,0.03909243208666643,1.3202522993087769,0.40818236271540326,0.4012897312641144,0.6673044761021932,0.5156362056732178,0.04899452129999796,0.6782922546068827
416.0,859.4338102213542,557.5281848301032,752.4801734963443,861.836721473107,858.4704988919772,0.5540398491753472,0.16351318359375,0.8298509385850695,-2.5396219889322915,5.493375990125867,5.481330023871529,0.43126387397448224,1.1235612630844116,0.30624107519785565,0.7245094974835714,0.9330418308575948,1.3076171875,0.002541978843510151,1.1287796099980671,1.1469735701878865,1.4722405672073364,0.9961022734642029,1.1482667922973633,0.18637359142303467,1.3202522993087769,0.31150861581166583,0.40820998946825665,0.7712876200675964,0.5156362056732178,-0.2546927680571874,1.0100210905075073
419.0,845.1007353282439,600.1635279897085,786.0200356338286,832.7144620583473,856.7848692462775,0.5434798423690025,0.15465291341145834,0.8352473095209912,-1.7188763088650172,4.044620090060763,5.117832607693142,0.38862164815266925,1.1235612630844116,0.2921736240386963,0.7777824004491171,1.0206758975982666,1.3076171875,-0.08145927016933759,1.2706706126530964,1.1148409247398376,1.4722405672073364,0.8577512800693512,1.4769827127456665,0.3047488182783127,1.3202522993087769,0.4205967237552007,0.5676880280176798,0.8430328667163849,0.5156362056732178,-0.3938685854276021,1.1666114330291748
422.0,854.943926595052,411.43223472986466,902.0169454564804,837.6245314691005,832.4486344088041,0.6529617309570312,0.18881310356987846,0.7856182522243924,3.621162838406033,-3.42572742038303,10.843446519639757,0.31974076231320697,1.1235612630844116,0.29106560349464417,0.7744142015775045,0.9653863708178202,1.3076171875,-0.0847107395529747,1.2413877646128337,1.138834039370219,1.4722405672073364,0.8580846190452576,1.6817653179168701,0.4419979155063629,1.3202522993087769,0.4291667938232422,0.7448499202728271,0.7755862871805826,0.5156362056732178,-0.397593230009079,1.1687362988789876
425.0,804.2366870117188,612.1897244966947,865.8166424404047,797.5265506059695,833.9132350197815,0.519626193576389,0.14216444227430555,0.8297763400607638,-2.938385009765625,17.650248209635418,7.516267564561631,0.18116494516531625,1.1235612630844116,0.29106560349464417,0.600311795870463,0.6253958841164907,1.3076171875,-0.0847107395529747,0.6682255665461222,1.0154363910357158,1.4722405672073364,0.8580846190452576,1.7381811141967773,0.4442073106765747,1.3202522993087769,0.4291667938232422,0.812832256158193,0.5217171112696329,0.5156362056732178,-0.397593230009079,0.4169195344050725
428.0,832.6214789873288,617.3496927802945,689.5196283599477,820.206493989921,847.8327208153995,0.405059814453125,0.12244669596354167,0.8969048394097223,-0.9990437825520834,5.29221428765191,6.2371995713975705,0.09589991966883342,1.1235612630844116,0.29106560349464417,0.4089839657147725,0.15858538697163263,1.3076171875,-0.0847107395529747,0.2702843447526296,1.0767287015914917,1.4722405672073364,0.8580846190452576,1.677799105644226,0.5024089018503824,1.3202522993087769,0.4291667938232422,0.8065744241078695,0.20297017693519592,0.5156362056732178,-0.397593230009079,-0.3252870937188466
431.0,831.2557513897236,532.6378327883207,820.1131756122296,818.1088585486779,862.4518659542767,0.45449490017361116,0.13489108615451387,0.8785400390625,0.8502790662977432,-4.274241129557292,8.395207722981771,0.06661468744277954,1.1235612630844116,0.29106560349464417,0.3759496510028839,0.11400289088487625,1.3076171875,-0.0847107395529747,0.24171841144561768,1.1312508583068848,1.4722405672073364,0.8580846190452576,1.6621863842010498,0.5325176119804382,1.3202522993087769,0.4291667938232422,0.7944847345352173,0.15292558073997498,0.5156362056732178,-0.397593230009079,-0.3971036672592163
434.0,832.78257661307,454.33817110518817,872.3335417510408,810.9886231693536,873.6099401365555,0.5319451226128473,0.14472452799479166,0.8371141221788193,-0.12752109103732634,-8.624496459960938,8.868323432074654,0.06661468744277954,1.1235612630844116,0.29106560349464417,0.3759496510028839,0.11400289088487625,1.3076171875,-0.0847107395529747,0.24171841144561768,1.1312508583068848,1.4722405672073364,0.8580846190452576,1.6621863842010498,0.5325176119804382,1.3202522993087769,0.4291667938232422,0.7944847345352173,0.15292558073997498,0.5156362056732178,-0.397593230009079,-0.3971036672592163
437.0,835.241623431982,340.8506118017271,930.3597946529262,808.9604630139705,868.5050061000378,0.6520987616644964,0.1360041300455729,0.7716793484157987,-2.428162186234086,-11.007105509440104,6.3350705747251155,0.42883485555648804,1.1235612630844116,0.29106560349464417,0.5323069592316946,0.19321134934822717,1.3076171875,-0.0847107395529747,0.28737709919611615,0.5550104777018229,1.4722405672073364,0.8580846190452576,1.10670801003774,0.36571667591730755,1.3202522993087769,0.4291667938232422,0.2637846108991653,-0.15070570508639017,0.5156362056732178,-0.397593230009079,-0.24881468216578165
440.0,886.2402555025541,282.1700940712904,970.7678238306289,847.3884692069811,863.3507064428086,0.7501288519965277,0.13387044270833334,0.6966824001736112,-1.116121080186632,-7.588543362087673,5.802832709418403,0.6099449396133423,1.1235612630844116,0.29106560349464417,0.6104856133460999,0.23281557857990265,1.3076171875,-0.0847107395529747,0.31020644307136536,0.266890287399292,1.4722405672073364,0.8580846190452576,0.8289688229560852,0.2823162078857422,1.3202522993087769,0.4291667938232422,-0.0015654509188607335,-0.30252134799957275,0.5156362056732178,-0.397593230009079,-0.17467018961906433
443.0,856.2581004607372,284.8924568371895,1097.3137997358274,825.9556681315104,853.4065943008815,0.7230461968315973,0.13268364800347224,0.721065945095486,-3.686481051974827,15.798077053493921,6.2767791748046875,0.6099449396133423,1.1235612630844116,0.29106560349464417,0.6104856133460999,0.23281557857990265,1.3076171875,-0.0847107395529747,0.31020644307136536,0.266890287399292,1.4722405672073364,0.8580846190452576,0.8289688229560852,0.2823162078857422,1.3202522993087769,0.4291667938232422,-0.0015654509188607335,-0.30252134799957275,0.5156362056732178,-0.397593230009079,-0.17467018961906433
446.0,811.9977456117289,429.60646257645044,617.118904309395,788.2765096028646,844.0772055601461,0.5737779405381945,0.08870103624131946,0.803558349609375,-0.7215118408203125,24.473665025499134,8.109427558051214,0.6099449396133423,1.1235612630844116,0.29106560349464417,0.6104856133460999,0.23281557857990265,1.3076171875,-0.0847107395529747,0.31020644307136536,0.266890287399292,1.4722405672073364,0.8580846190452576,0.8289688229560852,0.2823162078857422,1.3202522993087769,0.4291667938232422,-0.0015654509188607335,-0.30252134799957275,0.5156362056732178,-0.397593230009079,-0.17467018961906433
449.0,837.730948861929,411.8209067320213,848.121387908153,824.9462746957632,836.7209322415865,0.4861280653211805,0.10379706488715279,0.8618977864583334,13.208609686957464,29.179484049479168,9.506344265407987,0.6099449396133423,1.1235612630844116,0.29106560349464417,0.6104856133460999,0.23281557857990265,1.3076171875,-0.0847107395529747,0.31020644307136536,0.266890287399292,1.4722405672073364,0.8580846190452576,0.8289688229560852,0.2823162078857422,1.3202522993087769,0.4291667938232422,-0.0015654509188607335,-0.30252134799957275,0.5156362056732178,-0.397593230009079,-0.17467018961906433
452.0,840.8368136205428,775.6573483824119,906.2357273199619,820.2373637820514,828.8914864721054,0.3380025227864583,0.23460557725694442,0.8969963921440973,22.777260674370662,23.44743177625868,19.986251831054688,0.6099449396133423,1.1235612630844116,0.29106560349464417,0.6104856133460999,0.23281557857990265,1.3076171875,-0.0847107395529747,0.31020644307136536,0.266890287399292,1.4722405672073364,0.8580846190452576,0.8289688229560852,0.2823162078857422,1.3202522993087769,0.4291667938232422,-0.0015654509188607335,-0.30252134799957275,0.5156362056732178,-0.397593230009079,-0.17467018961906433
455.0,836.6126615084135,569.2425099886381,822.7683872320713,820.9603662735376,839.6294712164463,0.3386637369791667,0.34906005859375,0.897335476345486,15.125164455837675,5.918723212348091,14.035212198893229,0.6099449396133423,1.1235612630844116,0.29106560349464417,0.6104856133460999,0.23281557857990265,1.3076171875,-0.0847107395529747,0.31020644307136536,0.266890287399292,1.4722405672073364,0.8580846190452576,0.8289688229560852,0.2823162078857422,1.3202522993087769,0.4291667938232422,-0.0015654509188607335,-0.30252134799957275,0.5156362056732178,-0.397593230009079,-0.17467018961906433
458.0,844.6299415001503,607.763687916291,768.9978387294672,809.3167090782753,848.9743605393629,0.3336498119212963,0.37529048213252314,0.8825887044270834,-1.8888628924334487,8.589466236255786,2.1178747106481484,0.7236348191897074,1.1235612630844116,0.29106560349464417,0.7948467334111532,0.19499003887176514,1.3076171875,-0.0847107395529747,0.3588656187057495,0.921652356783549,1.4722405672073364,0.8580846190452576,1.2214625477790833,0.783248504002889,1.3202522993087769,0.4291667938232422,0.597883683280088,-0.08563503778229158,0.5156362056732178,-0.397593230009079,0.03045172244310379
461.0,834.164089105068,853.3962584275465,770.8161926269531,808.0097695375101,857.0794599484175,0.2982177734375,0.36437649197048616,0.9069485134548612,-11.26007080078125,11.1857181125217,-0.8652326795789932,0.7891901930173238,1.1235612630844116,0.29106560349464417,0.901742955048879,0.27304787437121075,1.3076171875,-0.0847107395529747,0.40252883235613507,1.287734866142273,1.4722405672073364,0.8580846190452576,1.4910932779312134,0.9333518743515015,1.3202522993087769,0.4291667938232422,0.9133358796437582,0.08011301358540852,0.5156362056732178,-0.397593230009079,0.21511147419611612
464.0,794.17520310622,936.6505685241713,812.3128584172176,801.2093352801984,877.6811893404447,0.16719612242683532,0.20870487273685515,0.9625869024367559,-24.89859686957465,19.813537597656246,21.964781019422745,0.8030839562416077,1.1235612630844116,0.29106560349464417,0.9235589504241943,0.3587552309036255,1.3076171875,-0.0847107395529747,0.39810556173324585,1.3225175142288208,1.4722405672073364,0.8580846190452576,1.514847755432129,0.8912161588668823,1.3202522993087769,0.4291667938232422,0.942915141582489,0.07507717609405518,0.5156362056732178,-0.397593230009079,0.2157697081565857
467.0,847.1518251747439,829.5778582133944,824.449476603041,838.9943283509568,868.5966735392699,0.13840060763888887,0.052978515625,0.9853379991319445,-18.17736307779948,7.9665374755859375,7.250840928819444,0.8030839562416077,1.1235612630844116,0.29106560349464417,0.9235589504241943,0.3587552309036255,1.3076171875,-0.0847107395529747,0.39810556173324585,1.3225175142288208,1.4722405672073364,0.8580846190452576,1.514847755432129,0.8912161588668823,1.3202522993087769,0.4291667938232422,0.942915141582489,0.07507717609405518,0.5156362056732178,-0.397593230009079,0.2157697081565857
470.0,839.877430451222,1316.2289849699307,838.7461250500801,817.3184931828424,835.1249186197916,0.13128323025173613,0.010545518663194446,0.9899495442708334,-4.595743815104167,3.709742228190104,6.946368747287326,0.6898165742556254,1.1235612630844116,0.29106560349464417,0.7715293566385905,0.3921676476796468,1.3076171875,-0.0847107395529747,0.41459571321805316,1.3423221508661907,1.4722405672073364,0.8580846190452576,1.571941574414571,0.8282185991605123,1.3202522993087769,0.4291667938232422,0.9594407280286154,0.11485091845194499,0.5156362056732178,-0.397593230009079,0.25628439088662464
473.0,845.8559232053894,1603.7811966451009,846.6491853813928,825.5861271499072,848.2127159841616,0.14366319444444445,0.026265462239583332,0.9865587022569445,1.7707570393880208,0.24922688802083334,1.0538143581814234,0.6190212766329447,1.1235612630844116,0.29106560349464417,0.6302632689476013,0.49066151181856793,1.3076171875,-0.0847107395529747,0.40633763869603473,1.3105699221293132,1.4722405672073364,0.8580846190452576,1.5914507706960042,0.6514481902122498,1.3202522993087769,0.4291667938232422,0.9863019784291586,0.1280620445807775,0.5156362056732178,-0.397593230009079,0.27916484077771503
476.0,836.1923164737191,1554.3015426647517,843.7261233714685,811.5896516892304,858.1638877122377,0.13642261646412038,0.052134195963541664,0.9775741012008101,2.1202285201461226,-5.952507301613136,-6.732172082971643,0.6969433625539144,1.1235612630844116,0.24724032481511435,0.6072520613670349,0.5251436630884806,1.3076171875,0.0896730770667394,0.483181635538737,1.0820411443710327,1.4722405672073364,1.2852187951405842,1.431581934293111,0.6369157036145529,1.3202522993087769,0.38709406057993573,0.8455560008684794,0.16246858735879263,0.5156362056732178,-0.4645615617434184,0.3267769515514374
479.0,865.410692616288,209.8839054921323,848.8163700752222,838.174745369211,848.8528436528537,0.3114725748697917,0.1575249565972222,0.9579874674479166,8.148888481987846,-17.578387790256077,-29.890611436631943,0.7107769052187601,1.1235612630844116,0.33212579290072125,0.696567436059316,0.5336193442344666,1.3076171875,-0.004918080444137256,0.6297525962193807,1.257512052853902,1.4722405672073364,1.1851532061894734,1.2309120496114094,0.6971462368965149,1.3202522993087769,0.40902723868687946,0.7061261137326559,0.08215385427077611,0.5156362056732178,-0.5862861076990763,0.40777337551116943
482.0,867.4049807600146,416.1621048484433,882.1826810918302,855.4216724406621,848.6678592649281,0.43199146412037037,0.20458509657118054,0.8986020688657407,4.641920019079138,-22.64447812680845,3.352932400173611,0.7121196389198303,1.1235612630844116,0.40153170625368756,0.7935349345207214,0.5158945918083191,1.3076171875,-0.047395285218954086,0.6233704686164856,1.3223695755004883,1.4722405672073364,1.2806500991185505,1.2879406213760376,0.753662109375,1.3202522993087769,0.5702272852261862,0.8189133405685425,0.045085497200489044,0.5156362056732178,-0.6452553073565165,0.39001235365867615
485.0,788.7827578813602,652.1790178739108,861.4910293970352,767.985349997496,854.1607986841447,0.4554612901475694,0.2038947211371528,0.872955322265625,-1.443854437934028,18.307376437717014,2.563298543294271,0.7121196389198303,1.1235612630844116,0.43146151304244995,0.7935349345207214,0.5158945918083191,1.3076171875,-0.0465439868470033,0.6233704686164856,1.3223695755004883,1.4722405672073364,1.4601576328277588,1.2879406213760376,0.753662109375,1.3202522993087769,0.6610180735588074,0.8189133405685425,0.045085497200489044,0.5156362056732178,-0.5811834931373596,0.39001235365867615
488.0,866.74462108123,800.5555525559645,841.4994804186699,847.7345753205128,851.0768268291768,0.37902492947048616,0.22065226236979166,0.9072333441840278,0.3630405002170139,9.446529812282987,6.2668100992838545,0.7121196389198303,1.1235612630844116,0.5316478808720907,0.791782816251119,0.5382328430811564,1.3076171875,-0.028671589990456898,0.6171461542447408,1.3674564758936565,1.4722405672073364,1.6788646380106609,1.2949708700180054,0.7798207004865011,1.3202522993087769,0.7888992428779602,0.8306047121683756,0.006851169591148694,0.5156362056732178,-0.49026069045066833,0.38754919171333313
491.0,850.8805291591547,678.6897731683193,846.701416798127,833.3323927659254,846.2571622408353,0.36295233832465285,0.24143473307291666,0.910980224609375,0.7825724283854166,6.1907958984375,6.261410183376736,0.6962981025377909,1.1235612630844116,0.5679324865341187,0.7841747800509135,0.5343759655952454,1.3076171875,0.017480490651602548,0.590508778889974,1.4849599599838257,1.4722405672073364,1.7824798425038655,1.3868247270584106,0.8513031999270121,1.3202522993087769,0.8338823914527893,0.9362874627113342,-0.11899568637212117,0.5156362056732178,-0.3480543792247772,0.36719249685605365
494.0,841.6290883990774,690.6138706913702,844.3408901290676,822.2954253715667,852.9846050903667,0.3510346589265046,0.24983610930266206,0.9124925401475695,-0.5888677526403356,5.986429850260417,4.8082789668330435,0.6883873343467712,1.1235612630844116,0.546460896730423,0.7831390500068665,0.5227941870689392,1.3076171875,0.05094317595163981,0.5883951783180237,1.4995473623275757,1.4722405672073364,1.7870093981424968,1.4047870635986328,0.8620865941047668,1.3202522993087769,0.8103173971176147,0.9546986222267151,-0.13989874720573425,0.5156362056732178,-0.24320305387179056,0.36146706342697144
497.0,846.1271792159122,679.9173101627783,840.1503814585479,827.0511072925013,863.0134115105002,0.3458116319444444,0.24819607204861113,0.9128044976128473,-0.980624728732639,3.5469970703125,6.384860568576389,0.6883873343467712,1.1235612630844116,0.5316063761711121,0.814318577448527,0.5227941870689392,1.3076171875,0.09115513910849889,0.5497787594795227,1.4995473623275757,1.4722405672073364,1.722385088602702,1.3438444137573242,0.8620865941047668,1.3202522993087769,0.6923861900965372,1.0122723976771038,-0.13989874720573425,0.5156362056732178,-0.18403249979019165,0.2647317523757617
500.0,838.7164208194245,691.2546130766159,844.3726504023971,825.8363734151332,854.1323111272208,0.3329757536300505,0.2512188535748106,0.9210809264520202,-1.3189917670355904,2.6128116183810763,6.135924445258246,0.988737960656484,1.1235612630844116,0.34087978800137836,1.0409553249677022,0.4809129635492961,1.3076171875,0.07135660760104656,0.5320309003194174,1.2310250798861186,1.4722405672073364,0.7567298909028372,1.3581209778785706,1.0258169174194336,1.3202522993087769,0.27874701221783954,1.0689536730448406,-0.021232618639866512,0.5156362056732178,-0.27452466388543445,0.010471707209944725
503.0,846.2881547976764,797.0015039688502,848.6799112955729,827.8825010642026,857.8543223845653,0.3103162977430556,0.24986775716145834,0.926300048828125,-1.4741770426432292,4.280887179904513,6.213226318359375,1.0489693880081177,1.1235612630844116,0.32600468397140503,1.1075214942296345,0.4081324537595113,1.3076171875,-0.05404032270113627,0.4589422047138214,1.0236272017161052,1.4722405672073364,0.006815639479706685,1.2651705741882324,0.9179543852806091,1.3202522993087769,-0.032360831275582314,0.9280619025230408,0.02147604835530122,0.5156362056732178,-0.2757236957550049,-0.05957490454117457
506.0,857.9214798364884,795.7307242369042,845.2240060659556,837.6923076923076,855.7828494340946,0.3095657913773148,0.24967447916666666,0.9264130768952547,-1.3544096770109952,2.2903951009114585,5.319609465422453,0.8974577784538269,1.1235612630844116,0.32600468397140503,0.8204480608304342,0.2971404790878296,1.3076171875,-0.07663310567537944,0.2756304194529851,0.8310795227686564,1.4722405672073364,0.07965191081166267,1.0181317726771038,0.7208049694697062,1.3202522993087769,-0.1998233050107956,0.7549344301223755,-0.04619242871801058,0.5156362056732178,-0.2527644981940587,-0.13623776038487753
509.0,869.6339206025359,526.1169507424263,858.9229723286426,855.241496695639,863.0361697205112,0.384033203125,0.2638821072048611,0.8897216796874999,-7.0281982421875,-27.477264404296875,4.601559109157986,0.8238517045974731,1.1235612630844116,0.324547400077184,0.7072538534800211,0.2694304386774699,1.3076171875,-0.05714442332585653,0.2626516819000244,0.9032190044720968,1.4722405672073364,0.17062209049860635,0.8955881595611572,0.6711389621098837,1.3202522993087769,-0.051993208626906075,0.6769268910090128,-0.08247163395086925,0.5156362056732178,-0.2138411601384481,-0.17187521358331045
512.0,831.5296377409874,507.0478161006684,876.6396587282707,816.4888330402719,860.4576453552536,0.5255262586805556,0.19897121853298608,0.8443705240885416,-8.517328898111979,-2.685835096571181,4.140073988172744,0.7505113482475281,1.1235612630844116,0.3182731866836548,0.7003021438916525,0.23875243961811066,1.3076171875,-0.07607241223255794,0.2957246204217275,0.9193146427472433,1.4722405672073364,0.47176040212313336,0.8721921443939209,0.6194291909535726,1.3202522993087769,0.07708334922790527,0.6077957153320312,-0.1614558845758438,0.5156362056732178,-0.20221486190954843,-0.15650164087613425
515.0,819.9582104805189,617.4908408140526,857.616701566256,802.1724423139523,844.4439767690806,0.5173611111111112,0.158294677734375,0.8480733235677084,-5.053905910915799,6.110212537977431,4.049106174045138,0.7394357919692993,1.1235612630844116,0.2762695699930191,0.6619541247685751,0.24904914697011313,1.3076171875,-0.07369654874006908,0.28653888901074726,0.9975710312525431,1.4722405672073364,0.8403953711191813,0.9393824934959412,0.5563469529151917,1.3202522993087769,0.11385380228360494,0.49388587474823,-0.2504682391881943,0.5156362056732178,-0.25588423013687134,-0.16100038588047028
518.0,853.0792929937901,631.1338607083834,856.4556416829428,837.4757556778345,847.7331262520032,0.5128139919704862,0.17838541666666666,0.8531867133246527,1.4679463704427083,5.459730360243056,6.899431016710069,0.7394357919692993,1.1235612630844116,0.131188636024793,0.6179919838905334,0.2848692039648692,1.3076171875,-0.017647872989376385,0.2828163107236226,1.131115198135376,1.4722405672073364,1.017450749874115,1.046196182568868,0.5606011350949606,1.3202522993087769,0.1939189632733663,0.43193530042966205,-0.2967374622821808,0.5156362056732178,-0.3271928032239278,-0.1740402728319168
521.0,849.3566260704628,596.7967497996796,846.732412484976,826.653048784305,836.5093469864283,0.49285549587673616,0.2082756890190972,0.8563774956597222,1.8492635091145833,5.2674102783203125,7.018644544813369,0.7394357919692993,1.1235612630844116,0.1173251544435819,0.5988284945487976,0.35116997361183167,1.3076171875,-0.0004966028694373866,0.33959341049194336,1.2493133544921875,1.4722405672073364,1.0674299399058025,1.1655551195144653,0.6613345146179199,1.3202522993087769,0.22206270694732666,0.4948338270187378,-0.23998117446899414,0.5156362056732178,-0.3892950415611267,-0.15249323844909668
524.0,848.7599761180389,596.2879214164539,858.267587515024,833.6655856401491,854.9149987636468,0.500856187608507,0.20996602376302084,0.8525577121310763,-1.6282823350694446,3.5321680704752603,5.507914225260417,0.7394357919692993,1.1235612630844116,0.1829765886068344,0.5988284945487976,0.35116997361183167,1.3076171875,-0.002204934482203195,0.33959341049194336,1.2493133544921875,1.4722405672073364,1.0745432774225872,1.1655551195144653,0.6613345146179199,1.3202522993087769,0.1603511000672976,0.4948338270187378,-0.23998117446899414,0.5156362056732178,-0.46632330616315204,-0.15249323844909668
527.0,845.430638239934,545.2268236600435,850.503427358774,830.1709399101061,845.5907764923878,0.5044623480902778,0.19938377097800927,0.8517557779947916,-1.9316468415436923,3.524898952907986,5.5954205548321765,0.3182567059993744,1.1235612630844116,0.26051217317581177,0.21314860383669534,0.12043157014219712,1.3076171875,0.026199198405568797,0.04813844462235769,0.18642980853716531,1.4722405672073364,1.0120418071746826,0.7163022458553314,0.2896452198425929,1.3202522993087769,0.2606644630432129,0.451601763566335,-0.32166505853335065,0.5156362056732178,-0.49012404680252075,-0.4794863859812419
530.0,846.7272487542568,534.5595006698218,851.025173871945,828.3474207168971,846.1435155623999,0.5103590223524305,0.20100233289930558,0.8486294216579862,-0.7356346978081597,3.1527201334635415,5.7853868272569455,0.21856927871704102,1.1235612630844116,0.25500813623269397,0.19571946561336517,-0.018768868098656338,1.3076171875,0.0771855612595876,-0.016680173420657713,-0.05370724449555079,1.4722405672073364,0.8365605076154073,0.44231600562731427,0.2902509570121765,1.3202522993087769,0.283795565366745,0.3703957398732503,-0.31894970933596295,0.5156362056732178,-0.47583745916684467,-0.5359028180440267
533.0,844.8345073367387,568.2442726956882,856.6046216446313,830.2829344138121,853.0989220565406,0.5155736529637897,0.2062445746527778,0.8460954938616071,-0.5981445312500001,3.429777357313368,5.944061279296875,0.3559820552666982,1.1235612630844116,0.24848826229572296,0.24625418583552042,-0.045222350706656776,1.3076171875,0.042188567419846855,0.004261213548791905,0.1618743042151133,1.4722405672073364,0.6558168729146322,0.37279542287190753,0.3519907196362813,1.3202522993087769,0.23836118976275125,0.28645430008570355,-0.3618728319803874,0.5156362056732178,-0.5003068447113037,-0.4680343568325043
536.0,848.083547905816,564.2574676216973,856.5247154066298,831.069587843153,860.1428045654297,0.5142055935329862,0.20576307508680555,0.8451775444878472,-1.7841529846191406,4.435511695014106,4.988795386420356,0.3749326964219411,1.1235612630844116,0.24918984870115915,0.3289148658514023,-0.04655078798532486,1.3076171875,-0.012042645597830415,-0.014818415200958649,0.16768250862757364,1.4722405672073364,0.6015700399875641,0.3047833691040675,0.2935956617196401,1.3202522993087769,0.22837726771831512,0.21318613489468893,-0.39637190103530884,0.5156362056732178,-0.49577898780504864,-0.4907798121372859
539.0,846.936977726863,557.6467925477639,856.3810438263722,829.7066393103968,851.34400393755,0.5061882866753472,0.20466783311631945,0.8510538736979166,-1.3611941867404516,6.4571363661024295,5.1666395399305545,0.4014224310715993,1.1235612630844116,0.10937108099460602,0.4216761787732442,-0.08596432705720265,1.3076171875,-0.07274526730179787,-0.016901517907778423,0.22831366459528604,1.4722405672073364,0.5001601676146189,0.2385845681031545,0.2639533380667369,1.3202522993087769,0.12756488720575967,0.10217616334557533,-0.41275452574094135,0.5156362056732178,-0.4559239943822225,-0.46106510361035663
542.0,847.6260900252905,568.4831407987155,850.5499189327925,830.6410256410255,847.3109795986078,0.48107231987847227,0.20469835069444445,0.86346435546875,-1.09161376953125,6.871185302734375,5.405731201171875,0.3848927120367686,1.1235612630844116,-0.09265955785910289,0.4584958553314209,-0.11518616477648418,1.3076171875,-0.17149847249190012,-0.010816767035673061,0.3701576193173726,1.4722405672073364,0.40379326542218524,0.25150297582149506,0.23100988070170084,1.3202522993087769,0.043520975237091385,-0.04368171002715826,-0.4693908890088399,0.5156362056732178,-0.4399177134037018,-0.4301964243253072
