No,RAW_TP9,RAW_AF7,RAW_AF8,RAW_TP10,REF,Accelerometer_X,Accelerometer_Y,Accelerometer_Z,Gyro_X,Gyro_Y,Gyro_Z,Alpha_TP9,Alpha_AF7,Alpha_AF8,Alpha_TP10,Beta_TP9,Beta_AF7,Beta_AF8,Beta_TP10,Delta_TP9,Delta_AF7,Delta_AF8,Delta_TP10,Theta_TP9,Theta_AF7,Theta_AF8,Theta_TP10,Gamma_TP9,Gamma_AF7,Gamma_AF8,Gamma_TP10
1,837.2893676757812,851.3919677734375,852.6007080078125,842.5274658203125,847.3626098632812,0.2575887044270833,0.7661336263020834,0.6327921549479166,-1.7981719970703125,2.67669677734375,5.90667724609375,0.9274834990501404,0.8235064148902893,0.649704098701477,0.8700390458106995,0.36659374833106995,-0.22057706117630005,-0.273561030626297,0.8058963418006897,0.6918332576751709,1.3085572719573975,0.5188775658607483,0.538110077381134,0.5932932496070862,0.813671350479126,0.2965582311153412,0.2306944578886032,0.015958135947585106,-0.7327643632888794,-0.41036930680274963,0.42555853724479675
2,841.861086331881,847.3471397986779,855.6846970778245,843.875741811899,850.276134784405,0.2621053059895833,0.76580810546875,0.62823486328125,-1.457977294921875,3.835601806640625,4.618174235026042,0.8556530475616455,0.8248760104179382,0.650757908821106,0.866808295249939,0.2735106647014618,-0.22215236723423004,-0.2710791230201721,0.7542861104011536,0.6155926585197449,1.38254976272583,0.5794769525527954,0.538093090057373,0.5395187139511108,0.8796472549438477,0.3301522731781006,0.18056271970272064,-0.06518588215112686,-0.7333114743232727,-0.3814777433872223,0.37883779406547546
3,837.0104205791766,847.7965580866887,851.4539325420673,842.1090416541466,848.9123699481671,0.2586771647135417,0.7750956217447916,0.6322530110677084,-2.206904093424479,5.8506011962890625,4.9533843994140625,0.7243657112121582,0.8248760104179382,0.650757908821106,0.8645983934402466,0.16785773634910583,-0.22265343368053436,-0.27578726410865784,0.6770094633102417,0.60292649269104,1.420509934425354,0.6199072599411011,0.567643940448761,0.47152069211006165,0.909376859664917,0.34188756346702576,0.13883188366889954,-0.14213740825653076,-0.7219878435134888,-0.3700667917728424,0.3413626253604889
4,853.2826162484976,851.020005446214,850.7255577674279,850.4001089242788,851.8103708120493,0.2538859049479167,0.7632853190104166,0.6342976888020834,-3.4742228190104165,6.686757405598958,4.259287516276042,0.5246955752372742,0.8248760104179382,0.650757908821106,0.8562108874320984,0.08193827420473099,-0.22159041464328766,-0.27927857637405396,0.5952433347702026,0.6421825289726257,1.4355157613754272,0.6408488750457764,0.6106832027435303,0.430084228515625,0.9177330732345581,0.34157422184944153,0.13958728313446045,-0.20491455495357513,-0.698530375957489,-0.3671630024909973,0.30593475699424744
5,838.7616248497596,848.7728905310997,852.7712003267728,841.3031804011418,848.3699622521034,0.24344889322916666,0.7638753255208334,0.63592529296875,-3.236211140950521,6.59454345703125,4.4100697835286455,0.5246955752372742,0.8248760104179382,0.650757908821106,0.8562108874320984,0.08193827420473099,-0.21785297989845276,-0.27517253160476685,0.5952433347702026,0.6421825289726257,1.4402058124542236,0.6523554921150208,0.6106832027435303,0.430084228515625,0.9188303351402283,0.3383573889732361,0.13958728313446045,-0.20491455495357513,-0.6686745285987854,-0.36419737339019775,0.30593475699424744
6,840.9777386005109,849.3617905836838,851.4849266639122,837.9557565542368,840.4818279559796,0.23784383138020834,0.7636210123697916,0.6438395182291666,-3.041814168294271,6.320393880208333,4.127197265625,0.5246955752372742,0.8248760104179382,0.650757908821106,0.8562108874320984,0.08193827420473099,-0.21232068538665771,-0.26600220799446106,0.5952433347702026,0.6421825289726257,1.4406908750534058,0.6587894558906555,0.6106832027435303,0.430084228515625,0.9185218214988708,0.3354734480381012,0.13958728313446045,-0.20491455495357513,-0.6396954655647278,-0.3588431179523468,0.30593475699424744
7,847.5641009990985,848.586923452524,853.1431391789363,848.8038870004507,855.3127699631912,0.231597900390625,0.7613118489583334,0.6474812825520834,-3.6187744140625,7.7322642008463545,4.358978271484375,0.5246955752372742,0.8248760104179382,0.650757908821106,0.8562108874320984,0.08193827420473099,-0.20586654543876648,-0.25898051261901855,0.5952433347702026,0.6421825289726257,1.4407260417938232,0.6634871959686279,0.6106832027435303,0.430084228515625,0.9177921414375305,0.33267757296562195,0.13958728313446045,-0.20491455495357513,-0.6165490746498108,-0.3525869846343994,0.30593475699424744
8,851.3471702293114,849.720524540654,854.4512261284722,851.6456389250578,848.3923452871817,0.22029622395833334,0.7546590169270834,0.6592000325520834,-3.96270751953125,8.361562093098959,4.104766845703125,0.5246955752372742,0.8248760104179382,0.650757908821106,0.8562108874320984,0.08193827420473099,-0.19991649687290192,-0.25752994418144226,0.5952433347702026,0.6421825289726257,1.440406322479248,0.6657818555831909,0.6106832027435303,0.430084228515625,0.9164564609527588,0.3281479477882385,0.13958728313446045,-0.20491455495357513,-0.5949528813362122,-0.34835779666900635,0.30593475699424744
9,845.1155301607572,848.0290198692909,851.7328843336838,846.3088191105769,847.4711209810697,0.21873982747395834,0.7486673990885416,0.6587626139322916,-2.9346466064453125,6.106058756510417,3.39447021484375,0.5246955752372742,0.8248760104179382,0.650757908821106,0.8562108874320984,0.08193827420473099,-0.19438426196575165,-0.26140788197517395,0.5952433347702026,0.6421825289726257,1.4382896423339844,0.664636492729187,0.6106832027435303,0.430084228515625,0.913016676902771,0.31933170557022095,0.13958728313446045,-0.20491455495357513,-0.5715113878250122,-0.34973669052124023,0.30593475699424744
10,849.3617976262019,848.4939387394832,851.9188467172476,849.1448246882512,848.7728975736178,0.22501627604166666,0.7489420572916666,0.6559346516927084,-1.5240224202473958,8.187103271484375,6.3914235432942705,0.5246955752372742,0.8248760104179382,0.650757908821106,0.43034330010414124,0.08193827420473099,-0.18836097419261932,-0.2703026235103607,0.2398959845304489,0.6421825289726257,1.431694507598877,0.6569641828536987,0.6135275959968567,0.430084228515625,0.9028670787811279,0.30077797174453735,0.29510945081710815,-0.20491455495357513,-0.5496699810028076,-0.3604011535644531,-0.2903554439544678
11,842.8529170109675,847.8120633638822,849.625246488131,844.526623065655,843.0078899676984,0.214111328125,0.7488810221354166,0.6603800455729166,-0.2093505859375,9.802093505859375,7.309824625651042,0.27424150705337524,0.8246892094612122,0.650757908821106,0.5440839529037476,0.3760049641132355,-0.18155337870121002,-0.2842811048030853,0.20220452547073364,0.7371571660041809,1.4187108278274536,0.6404313445091248,0.6576770544052124,0.556398868560791,0.8810176253318787,0.2675786316394806,0.2854432463645935,-0.1732558310031891,-0.5350066423416138,-0.3824794590473175,-0.29023057222366333
12,850.338125375601,848.292478121244,849.7492276705228,849.5632512019231,841.7836045485276,0.20792643229166666,0.7587687174479166,0.6587626139322916,0.7352193196614584,10.086212158203125,9.054412841796875,0.2787705957889557,0.8246892094612122,0.6351702809333801,0.5803857445716858,0.3577196002006531,-0.17161989212036133,-0.30320778489112854,0.18121573328971863,0.6937949657440186,1.3927088975906372,0.6124961972236633,0.6609932780265808,0.5003674030303955,0.8451153039932251,0.21801473200321198,0.2838955819606781,-0.16305981576442719,-0.5266333222389221,-0.41383329033851624,-0.2671472728252411
13,852.321786733774,850.6790654109075,850.0746647761418,853.7785315880409,832.6246760441707,0.18110148111979166,0.7640279134114584,0.66046142578125,-0.635528564453125,8.735402425130209,6.651865641276042,0.2945441007614136,0.8246892094612122,0.6043466925621033,0.5865839719772339,0.3323277533054352,-0.16369609534740448,-0.3285064995288849,0.17315098643302917,0.635903537273407,1.347751498222351,0.5719574689865112,0.630852997303009,0.459765762090683,0.7904710173606873,0.14931975305080414,0.28376150131225586,-0.15230563282966614,-0.5211316347122192,-0.45520588755607605,-0.22643916308879852
14,844.5421213003306,848.1220116248497,847.3161409818209,860.116929274339,833.0276137131912,0.18463134765625,0.7615458170572916,0.65814208984375,-2.4050394694010415,7.0281982421875,3.724695841471354,0.33798640966415405,0.8240669965744019,0.5546852350234985,0.6092298626899719,0.30728042125701904,-0.16445741057395935,-0.36215999722480774,0.1690269559621811,0.5818020701408386,1.2686725854873657,0.5097307562828064,0.5892884135246277,0.4372516870498657,0.7034085988998413,0.052586525678634644,0.2805905044078827,-0.14512474834918976,-0.515304446220398,-0.5123573541641235,-0.16771166026592255
15,791.2313326322115,836.9794288048378,852.6627197265625,804.3265686035156,832.5781954251803,0.19620768229166666,0.75714111328125,0.66754150390625,-3.5564676920572915,4.802602132161458,4.286702473958333,0.43415960669517517,0.8037533164024353,0.4706278443336487,0.6527075171470642,0.2934626638889313,-0.1782836765050888,-0.4008795917034149,0.17174410820007324,0.5869462490081787,1.1334186792373657,0.4109499752521515,0.5731815695762634,0.4391442835330963,0.5645480751991272,-0.08707311004400253,0.2942977249622345,-0.134253591299057,-0.5085652470588684,-0.5892855525016785,-0.09036209434270859
16,841.1327115572416,848.7418987567609,845.20850783128,845.7044184758113,841.8455904447115,0.19712320963541666,0.7496439615885416,0.6644999186197916,-3.617528279622396,3.881708780924479,4.538421630859375,0.6348835229873657,0.6809002757072449,0.31244009733200073,0.7484990358352661,0.3037574291229248,-0.20102199912071228,-0.4226796329021454,0.20603221654891968,0.7111032605171204,0.9211769700050354,0.266460120677948,0.649586021900177,0.49346935749053955,0.36119937896728516,-0.27199074625968933,0.3795534074306488,-0.11243699491024017,-0.5010640621185303,-0.674362063407898,0.003016439499333501
17,826.6737060546875,855.8396723820613,836.4060293344351,818.212172288161,853.3291086050181,0.1910400390625,0.7528076171875,0.6670328776041666,-1.4081319173177083,6.467437744140625,3.63372802734375,0.6348835229873657,0.4919769763946533,0.10929343104362488,0.7484990358352661,0.3037574291229248,-0.22141367197036743,-0.39386117458343506,0.20603221654891968,0.7111032605171204,0.6320905089378357,0.09545010328292847,0.649586021900177,0.49346935749053955,0.11373010277748108,-0.4585951864719391,0.3795534074306488,-0.11243699491024017,-0.4939826726913452,-0.7347255349159241,0.003016439499333501
18,847.0681903545673,856.6920283390925,837.6148259089543,844.0307124211238,846.7737356332632,0.18571980794270834,0.7509053548177084,0.673187255859375,-2.3813629150390625,4.712880452473958,6.0724131266276045,0.6348835229873657,0.3118869364261627,0.010275481268763542,0.7484990358352661,0.3037574291229248,-0.23186521232128143,-0.31385135650634766,0.20603221654891968,0.7111032605171204,0.35453397035598755,-0.03733982518315315,0.649586021900177,0.49346935749053955,-0.060184378176927567,-0.534408450126648,0.3795534074306488,-0.11243699491024017,-0.4901151657104492,-0.7444754838943481,0.003016439499333501
19,863.2473942683293,856.41307419997,846.6032644418569,896.9540686974159,857.9783090444712,0.186553955078125,0.75189208984375,0.66802978515625,-1.5427144368489583,4.38140869140625,5.615081787109375,0.6348835229873657,0.2638539969921112,0.06372356414794922,0.7484990358352661,0.3037574291229248,-0.23276692628860474,-0.21502158045768738,0.20603221654891968,0.7111032605171204,0.24360209703445435,-0.05724995955824852,0.649586021900177,0.49346935749053955,-0.07207056134939194,-0.46900585293769836,0.3795534074306488,-0.11243699491024017,-0.4928649365901947,-0.7184961438179016,0.003016439499333501
20,845.9368826059194,844.1391906738281,855.1887911283053,888.2910696176382,837.8472806490385,0.1849365234375,0.7507425944010416,0.6650797526041666,-1.2025197347005208,3.774541219075521,5.8830006917317705,0.6348835229873657,0.28626132011413574,0.09630738943815231,0.7484990358352661,0.3037574291229248,-0.23201072216033936,-0.12795132398605347,0.20603221654891968,0.7111032605171204,0.2970227301120758,0.04558614641427994,0.649586021900177,0.49346935749053955,-0.014157171361148357,-0.35263684391975403,0.3795534074306488,-0.11243699491024017,-0.5014551877975464,-0.687383770942688,0.003016439499333501
21,842.4189875676082,846.0918579101562,848.8193852351262,845.2859919621394,840.4508291391226,0.20139567057291666,0.7532145182291666,0.6728006998697916,0.1607513427734375,1.4928690592447917,7.591451009114583,0.6348835229873657,0.29424428939819336,0.09630738943815231,0.7484990358352661,0.3037574291229248,-0.23438359797000885,-0.06519756466150284,0.20603221654891968,0.7111032605171204,0.4029272794723511,0.20909862220287323,0.649586021900177,0.49346935749053955,0.04501763731241226,-0.24271303415298462,0.3795534074306488,-0.11243699491024017,-0.5115327835083008,-0.6602394580841064,0.003016439499333501
22,825.3874347393329,844.1391953688401,850.2451430100662,814.3533372145432,846.4173044057993,0.19138590494791666,0.7532552083333334,0.66259765625,0.216827392578125,1.3034566243489583,6.390177408854167,0.6348835229873657,0.2925466001033783,0.100397989153862,0.7484990358352661,0.3037574291229248,-0.2376229465007782,-0.02590133063495159,0.18582932651042938,0.7111032605171204,0.49469059705734253,0.3612755835056305,0.6708126664161682,0.49346935749053955,0.09780973941087723,-0.1574941724538803,0.3901106119155884,-0.11243699491024017,-0.516628623008728,-0.6295855641365051,0.018201911821961403
23,822.0400132399338,847.1921597994291,853.9335068922776,823.3262892503005,844.1236994816707,0.19902547200520834,0.7546793619791666,0.6635335286458334,-0.5657450358072916,6.258087158203125,6.7976633707682295,0.6348835229873657,0.2925466001033783,0.12102708965539932,0.7458672523498535,0.2862239181995392,-0.23771995306015015,-0.0026450699660927057,0.16853800415992737,0.7097219824790955,0.5644848346710205,0.4751867949962616,0.6898354291915894,0.4591294229030609,0.14411808550357819,-0.09720909595489502,0.3967137932777405,-0.1162886768579483,-0.5146766304969788,-0.5860351920127869,0.044550154358148575
24,835.9721045860878,849.9971853402944,859.1715979942909,844.6196124737079,848.9278658353365,0.19828287760416666,0.7591552734375,0.6691691080729166,-1.1190287272135417,6.215718587239583,7.721048990885417,0.6348835229873657,0.2925466001033783,0.12707243859767914,0.7346997261047363,0.27222785353660583,-0.23452411592006683,0.014585215598344803,0.1660490781068802,0.6982840299606323,0.6119408011436462,0.541520893573761,0.6921249032020569,0.42483025789260864,0.18378478288650513,-0.05485934019088745,0.4072359800338745,-0.10554445534944534,-0.5059468746185303,-0.530306339263916,0.08153271675109863
25,841.9540780874399,851.8723614032452,853.5150780310997,850.1521536020132,857.7768390362079,0.19215223524305555,0.7541436089409722,0.6622314453125,-1.9647386338975694,3.5838826497395835,6.759033203125,0.6348835229873657,0.30562686920166016,0.13078200817108154,0.7289397120475769,0.25579309463500977,-0.23256699740886688,0.032316360622644424,0.18189433217048645,0.6856356263160706,0.644766092300415,0.5722044110298157,0.6720622777938843,0.41339269280433655,0.21674281358718872,-0.024703847244381905,0.42791852355003357,-0.08690818399190903,-0.4901103973388672,-0.47075381875038147,0.12601935863494873
26,847.5021127554087,850.307131253756,850.7565471942609,843.6742764986478,852.3372849684495,0.20037841796875,0.7578328450520834,0.6630859375,-2.310333251953125,2.811279296875,5.15899658203125,0.6884253621101379,0.32299429178237915,0.14338845014572144,0.7265666127204895,0.29274576902389526,-0.23543034493923187,0.0519396997988224,0.20982643961906433,0.9799403548240662,0.6674978733062744,0.589693546295166,0.6413413882255554,0.5815261602401733,0.24334363639354706,-0.003377282992005348,0.4568580090999603,0.010058778338134289,-0.468256413936615,-0.41209810972213745,0.17648206651210785
27,843.224851168119,850.2606295072115,848.3699622521034,836.7159775954026,847.1146874060997,0.203277587890625,0.7535909016927084,0.6642252604166666,-2.5396219889322915,4.550882975260417,5.064290364583333,0.6884253621101379,0.3285309374332428,0.16695024073123932,0.7107692956924438,0.3277069330215454,-0.24364829063415527,0.07022099196910858,0.24078503251075745,1.159777283668518,0.6817740797996521,0.607162594795227,0.6318929195404053,0.6859754323959351,0.26161524653434753,0.011644570156931877,0.4923376739025116,0.0763571560382843,-0.4441240429878235,-0.35658320784568787,0.23212358355522156
28,859.8534851074219,856.4750624436599,851.0354942908654,847.0061950683594,848.0910128079928,0.19427490234375,0.7398681640625,0.6689860026041666,-2.998199462890625,5.124104817708333,6.033782958984375,0.6884253621101379,0.3285309374332428,0.18716254830360413,0.7107692956924438,0.36822015047073364,-0.2540271580219269,0.0844021886587143,0.24078503251075745,1.2716577053070068,0.6914095878601074,0.6250730156898499,0.6318929195404053,0.7399903535842896,0.27059370279312134,0.023625653237104416,0.4923376739025116,0.13625279068946838,-0.42320871353149414,-0.30878540873527527,0.23212358355522156
29,858.5517038198618,849.0983464167668,852.8176926832932,891.5920011080228,834.1279226449819,0.19561767578125,0.7539265950520834,0.664520263671875,-2.458623250325521,3.904139200846354,5.109151204427083,0.7087373733520508,0.3285309374332428,0.19072085618972778,0.7107692956924438,0.46333709359169006,-0.26582878828048706,0.09844977408647537,0.24078503251075745,1.3445196151733398,0.6995041370391846,0.6518374085426331,0.6318929195404053,0.8002082109451294,0.2650330364704132,0.04198484867811203,0.4923376739025116,0.24865809082984924,-0.40074416995048523,-0.2520604133605957,0.23212358355522156
30,847.7500680776743,848.8038893479568,854.9563293457031,858.8306579589844,849.4392817570613,0.197479248046875,0.7518412272135416,0.67071533203125,-1.6772969563802083,3.9377848307291665,5.301055908203125,0.6152364611625671,0.32675227522850037,0.19072085618972778,0.7107692956924438,0.5279751420021057,-0.2669915556907654,0.0971641018986702,0.24078503251075745,1.3157680034637451,0.7004027962684631,0.6607231497764587,0.6318929195404053,0.8274036645889282,0.2587612569332123,0.0447140634059906,0.4923376739025116,0.3034258484840393,-0.3958725035190582,-0.24265776574611664,0.23212358355522156
31,853.2361191969651,854.2124563363882,849.0828387920673,841.3806692270132,851.1129878117488,0.19193522135416666,0.751922607421875,0.66778564453125,-1.7383575439453125,4.9284617106119795,5.2499643961588545,0.7121551632881165,0.3177375793457031,0.19072085618972778,0.7107692956924438,0.5849859118461609,-0.2726689279079437,0.08443474024534225,0.24078503251075745,1.267835021018982,0.6950029134750366,0.6658190488815308,0.6318929195404053,0.8613064289093018,0.2500624656677246,0.03859027102589607,0.4923376739025116,0.32637351751327515,-0.3917403817176819,-0.2415158748626709,0.23212358355522156
32,842.4827021846065,846.9746319806135,852.138104474103,839.065251103154,843.3930324978298,0.190185546875,0.75494384765625,0.67022705078125,-1.4903767903645833,5.480499267578125,3.641204833984375,0.7377858757972717,0.2955424189567566,0.18408355116844177,0.814140260219574,0.6237105131149292,-0.28580909967422485,0.0550190731883049,0.5995226502418518,1.2246811389923096,0.6759774088859558,0.6620509624481201,1.6046793460845947,0.884868860244751,0.2340172529220581,0.021609898656606674,0.771137535572052,0.34079375863075256,-0.3871545195579529,-0.24615764617919922,0.5411075949668884
33,838.3277001014122,844.7125971867488,850.9270254281851,833.2445772611178,844.1856853778546,0.18672688802083334,0.7485555013020834,0.6739298502604166,-2.340240478515625,5.079243977864583,4.825032552083333,0.7471235990524292,0.25930777192115784,0.19202955067157745,0.8181716203689575,0.6369383335113525,-0.3042011857032776,0.0057302117347717285,0.6451079249382019,1.1854958534240723,0.6346957087516785,0.6451566219329834,1.7085745334625244,0.8945785164833069,0.20946159958839417,-0.0055288998410105705,0.8345605731010437,0.3503687381744385,-0.3823285698890686,-0.25308841466903687,0.4991114139556885
34,839.7999384953425,847.2076697716346,851.5314213679387,838.2192171536959,850.0901630108173,0.181884765625,0.7299601236979166,0.6700642903645834,-1.2087504069010417,0.6454976399739584,2.0212300618489585,0.7537646889686584,0.20601224899291992,0.1816340833902359,0.8181716203689575,0.6353055834770203,-0.32043397426605225,-0.059930600225925446,0.6644731760025024,1.1518206596374512,0.5749754905700684,0.606889009475708,1.7635740041732788,0.8951171636581421,0.17979995906352997,-0.042625296860933304,0.8525814414024353,0.36816343665122986,-0.37794044613838196,-0.2573409080505371,0.46579763293266296
35,845.0070472130409,847.3316415640024,853.9180039625901,845.6734290489784,850.7875483586238,0.1898193359375,0.7589518229166666,0.6702168782552084,1.6872660319010417,3.490422566731771,1.7707570393880208,0.7537646889686584,0.10670541226863861,0.16358989477157593,0.8181716203689575,0.6338555812835693,-0.3291369378566742,-0.12999960780143738,0.660646915435791,1.12519109249115,0.5038861036300659,0.5379679799079895,1.7741751670837402,0.8885366916656494,0.14865528047084808,-0.08889143913984299,0.8396281003952026,0.3988374173641205,-0.3760354220867157,-0.2587970495223999,0.4394199252128601
36,851.0355036808894,848.7883887657753,848.230482835036,840.1098914513221,850.0746647761418,0.17759195963541666,0.7587890625,0.6624755859375,-1.3321177164713542,5.465545654296875,6.47491455078125,0.7537646889686584,0.051439378410577774,0.12441027164459229,0.8181716203689575,0.6377401351928711,-0.33247965574264526,-0.18802060186862946,0.6436964869499207,1.1047837734222412,0.42413365840911865,0.43358317017555237,1.7567540407180786,0.8738405108451843,0.11443270742893219,-0.1407744586467743,0.808746337890625,0.430249959230423,-0.381259948015213,-0.26412174105644226,0.4179382920265198
37,852.678225003756,851.2369713416466,849.9661865234375,845.5339519794171,852.3837702824519,0.182891845703125,0.7575174967447916,0.6584065755208334,0.3239949544270833,4.7465260823567705,7.4257151285807295,0.7537646889686584,0.02170669287443161,0.06548123061656952,0.8181716203689575,0.642592191696167,-0.337772935628891,-0.225539892911911,0.6228175163269043,1.0873308181762695,0.3370943069458008,0.3009020686149597,1.7254259586334229,0.8515409231185913,0.07413069158792496,-0.19138848781585693,0.7703368663787842,0.4481886029243469,-0.3981635272502899,-0.2813683748245239,0.39631131291389465
38,842.4499887319712,844.526623065655,849.1603370079628,838.8546048677885,852.2752873347356,0.18414306640625,0.7706502278645834,0.66058349609375,-0.22679646809895834,5.193888346354167,6.552174886067708,0.7537646889686584,0.0027963663451373577,0.007264583837240934,0.8181716203689575,0.6456850171089172,-0.3509733974933624,-0.25077757239341736,0.602669894695282,1.069380521774292,0.2530778646469116,0.1789354532957077,1.687254548072815,0.8257283568382263,0.02779930643737316,-0.23309151828289032,0.7321343421936035,0.4490073025226593,-0.42750421166419983,-0.3136439025402069,0.3708307147026062
39,842.7909264197716,846.1073514498197,852.3992708646334,844.4026512732872,851.3299560546875,0.170654296875,0.75299072265625,0.653228759765625,-1.2959798177083333,5.2923329671223955,5.0954437255859375,0.7537646889686584,-0.013079741969704628,-0.007772660814225674,0.8181716203689575,0.6473293304443359,-0.3710504472255707,-0.27735817432403564,0.5834793448448181,1.0505629777908325,0.17608585953712463,0.10617835074663162,1.6483521461486816,0.8004475235939026,-0.020812325179576874,-0.2599294185638428,0.6973477005958557,0.4395003616809845,-0.4648786187171936,-0.3583405017852783,0.34154242277145386
40,843.6897723858173,845.0225431002103,852.6937115009015,850.1056612454928,851.0664954552284,0.18914794921875,0.7752888997395834,0.670501708984375,1.9639078776041667,5.1477813720703125,3.717219034830729,0.7441970705986023,-0.03750321641564369,-0.00966804102063179,0.8181716203689575,0.6559312343597412,-0.3924611508846283,-0.31398099660873413,0.564389169216156,0.9698421955108643,0.11670935899019241,0.06032628193497658,1.61186683177948,0.7616649270057678,-0.0666627436876297,-0.2742021977901459,0.6694507002830505,0.43831270933151245,-0.5045149326324463,-0.4140327572822571,0.3113133907318115
41,844.8985572228065,846.0918508676382,848.6953993577224,848.4474440354568,845.8129061185397,0.17470296223958334,0.7639363606770834,0.6550496419270834,-2.9957071940104165,4.628143310546875,3.4517923990885415,0.7326230406761169,-0.11936575174331665,-0.010336803272366524,0.8181716203689575,0.6629161238670349,-0.4088066816329956,-0.3587462604045868,0.5453220009803772,0.8722392916679382,0.08743958175182343,-0.0001911987055791542,1.5780106782913208,0.7286551594734192,-0.10234127193689346,-0.281884104013443,0.647986650466919,0.44422322511672974,-0.5426240563392639,-0.48289528489112854,0.28308022022247314
42,850.2916306715745,845.8748920147235,849.7337294358474,843.9222294734075,848.5714252178485,0.1734280056423611,0.7636515299479166,0.6550428602430556,-1.757049560546875,3.7741258409288196,5.409884982638889,0.7258894443511963,-0.20027697086334229,-0.014246921986341476,0.8181716203689575,0.6653702855110168,-0.41834887862205505,-0.4047487676143646,0.5269943475723267,0.7693313360214233,0.07227576524019241,-0.08184803277254105,1.5473328828811646,0.7058774828910828,-0.12542060017585754,-0.2899926006793976,0.6284074187278748,0.4579898715019226,-0.5769187808036804,-0.5634063482284546,0.25784146785736084
43,853.4840792142428,845.7199120154747,849.9661888709435,847.7190856933594,853.5460698054387,0.16471354166666666,0.7568562825520834,0.6541341145833334,0.2940877278645833,0.4610697428385417,3.2200113932291665,0.7258894443511963,-0.25384801626205444,-0.02493550442159176,0.8181716203689575,0.6637185215950012,-0.42436695098876953,-0.44347134232521057,0.5095174312591553,0.6964699625968933,0.0639050304889679,-0.16929902136325836,1.5196619033813477,0.688010573387146,-0.13942193984985352,-0.2968953251838684,0.6068428158760071,0.479708194732666,-0.6043091416358948,-0.6438748836517334,0.23557092249393463
44,843.3643258901743,847.8120633638822,849.3153052696815,841.3031827486478,857.5908649151141,0.18294270833333334,0.7819010416666666,0.6580810546875,-0.3077952067057292,1.0006459554036458,2.588221232096354,0.7270747423171997,-0.2653745412826538,-0.026400072500109673,0.8180334568023682,0.6565825939178467,-0.4284466505050659,-0.4664284586906433,0.4889048933982849,0.656098484992981,0.055698689073324203,-0.24829554557800293,1.5093311071395874,0.6594821214675903,-0.15742065012454987,-0.2954871356487274,0.5945420861244202,0.5040169358253479,-0.6237266063690186,-0.7038584351539612,0.13777069747447968
45,841.6751239483173,848.2459928072416,851.2369736891526,835.2902268629807,855.8086759127103,0.17738850911458334,0.7656046549479166,0.6496175130208334,-3.39447021484375,5.839385986328125,5.181427001953125,0.7270747423171997,-0.27058830857276917,-0.0406344011425972,0.8002755641937256,0.6401543021202087,-0.42625853419303894,-0.46880999207496643,0.4718593657016754,0.6275787949562073,0.034809887409210205,-0.31312334537506104,1.4913266897201538,0.6104803681373596,-0.18859869241714478,-0.2825872600078583,0.5702632069587708,0.5229331254959106,-0.6395785212516785,-0.7342141270637512,0.06903848052024841
46,846.2003385103666,849.9197012094351,849.7492206280048,839.3195284329928,850.8030465932993,0.16667683919270834,0.762969970703125,0.6607767740885416,-3.2785797119140625,6.3465627034505205,6.5160369873046875,0.6984453797340393,-0.24986836314201355,-0.0406344011425972,0.7529232501983643,0.6154552698135376,-0.4121149480342865,-0.45442119240760803,0.4530576765537262,0.6124517917633057,0.0025387436617165804,-0.3554514944553375,1.4455069303512573,0.5436121225357056,-0.22949405014514923,-0.2576886713504791,0.5248252153396606,0.5321652889251709,-0.657334566116333,-0.7440822124481201,0.03137000650167465
47,850.2451430100662,849.1913240872897,849.9351947490985,848.3389728252704,845.2085148737981,0.17486572265625,0.7560831705729166,0.6540934244791666,-2.3726399739583335,4.094797770182292,5.968983968098958,0.6756938695907593,-0.23721303045749664,-0.0406344011425972,0.7149543762207031,0.5944632291793823,-0.38517722487449646,-0.42969146370887756,0.44285231828689575,0.6089385747909546,-0.04092844948172569,-0.3699616491794586,1.3611729145050049,0.47431662678718567,-0.2705518901348114,-0.22569669783115387,0.46535611152648926,0.5349420309066772,-0.677805483341217,-0.7422642111778259,0.021939288824796677
48,851.5159254807693,848.7883887657753,851.7483849158654,856.6455383300781,853.5770615797776,0.17409261067708334,0.7670694986979166,0.6618177625868056,-1.3192409939236112,5.620066324869792,5.336778428819445,0.7953751683235168,-0.23093339800834656,-0.05673355236649513,0.7374776601791382,0.5922150611877441,-0.35142165422439575,-0.397700697183609,0.4622582495212555,0.6082429885864258,-0.08203809708356857,-0.37463638186454773,1.2280312776565552,0.4184233248233795,-0.30696555972099304,-0.1995554268360138,0.4201667606830597,0.5358195900917053,-0.697974443435669,-0.7328224182128906,0.03984885662794113
49,845.7974055363582,846.2468332143931,850.1211618276743,847.254152738131,846.572275015024,0.1669921875,0.76287841796875,0.6567789713541666,-2.0635986328125,4.760233561197917,6.883646647135417,0.9340060353279114,-0.2201874852180481,-0.11911056190729141,0.7932993173599243,0.608011782169342,-0.3205278217792511,-0.35892391204833984,0.5139158368110657,0.6035851240158081,-0.11573770642280579,-0.3765079975128174,1.0489672422409058,0.3776877224445343,-0.34598952531814575,-0.18941408395767212,0.40785205364227295,0.5339491367340088,-0.7157211303710938,-0.7189472913742065,0.07572811096906662
50,833.1980872521034,845.8284043532151,848.8658799391526,835.9411057692307,849.7337247408353,0.16739908854166666,0.7615865071614584,0.6573486328125,-0.5196380615234375,3.662389119466146,6.482391357421875,0.990408718585968,-0.19145476818084717,-0.1550883799791336,0.7953892350196838,0.6251577734947205,-0.3006669282913208,-0.3158479928970337,0.5743972659111023,0.587720513343811,-0.15359081327915192,-0.37305331230163574,0.8618940114974976,0.3469979166984558,-0.39364245533943176,-0.19460463523864746,0.41624537110328674,0.5247388482093811,-0.7310462594032288,-0.7006024718284607,0.10863470286130905
51,842.4146508789063,844.284248046875,852.3912084960938,841.0930395507812,844.5904736328125,0.15314737955729166,0.7583109537760416,0.6538899739583334,0.351409912109375,4.1907501220703125,2.832463582356771,0.9940552115440369,-0.14393208920955658,-0.1969461441040039,0.7853423953056335,0.6304519772529602,-0.2940434515476227,-0.27627915143966675,0.6222867965698242,0.5701398253440857,-0.20041024684906006,-0.3691592514514923,0.7275449633598328,0.3302628993988037,-0.4411815404891968,-0.20439733564853668,0.4242750108242035,0.5092060565948486,-0.7422122359275818,-0.6752206087112427,0.12490220367908478
52,853.8560133713943,843.2403423602765,856.9554795485276,851.0355083759015,846.3863079364484,0.19480387369791666,0.80230712890625,0.6662394205729166,3.8555399576822915,2.8511555989583335,-9.233856201171875,0.9940552115440369,-0.11374364793300629,-0.20294059813022614,0.7797189950942993,0.6240798234939575,-0.2955733835697174,-0.2470826953649521,0.653395414352417,0.5699546337127686,-0.24098072946071625,-0.36500975489616394,0.6784183382987976,0.3387005627155304,-0.4685267210006714,-0.2119739055633545,0.4258768558502197,0.49444177746772766,-0.7467853426933289,-0.6440262198448181,0.12824754416942596
53,849.4392841045673,853.7630239633413,850.0436800443209,848.0135263296274,850.3226247934194,0.164031982421875,0.7744954427083334,0.650726318359375,-4.88983154296875,7.7970631917317705,7.601420084635417,0.9940552115440369,-0.06082107499241829,-0.20294059813022614,0.7775017023086548,0.6137298345565796,-0.2935680150985718,-0.22726662456989288,0.6748054623603821,0.6005147099494934,-0.2515391707420349,-0.35795852541923523,0.7024301290512085,0.37110015749931335,-0.45198166370391846,-0.2197236269712448,0.42320942878723145,0.4878453016281128,-0.7456664443016052,-0.6136360764503479,0.13077908754348755
54,844.5111318734976,854.9563269981971,849.2223158616287,840.7297809307391,850.0436683067909,0.14961751302083334,0.7585652669270834,0.6551513671875,-0.5196380615234375,5.4443613688151045,10.752894083658854,0.9940552115440369,0.024824129417538643,-0.20294059813022614,0.7784144878387451,0.6072895526885986,-0.2808837890625,-0.21095582842826843,0.6941887736320496,0.6496509909629822,-0.20753110945224762,-0.3262096345424652,0.7485589981079102,0.41622674465179443,-0.39042165875434875,-0.23051130771636963,0.4190174639225006,0.4889134168624878,-0.7444835305213928,-0.5896899104118347,0.13959543406963348
55,841.7991027832031,854.1194645808293,851.7638737605168,841.4736562875601,841.1172203650841,0.16307576497395834,0.777191162109375,0.660797119140625,0.59814453125,2.863616943359375,8.990859985351562,0.9940552115440369,0.14939744770526886,-0.19458085298538208,0.7920718193054199,0.6075044274330139,-0.25968173146247864,-0.19336184859275818,0.7154875993728638,0.6947861313819885,-0.10505346208810806,-0.2555028200149536,0.7878375053405762,0.4612540006637573,-0.30811846256256104,-0.23903799057006836,0.4096698760986328,0.49150240421295166,-0.7454846501350403,-0.5711302161216736,0.15318964421749115
56,837.2273911696213,851.3299490121694,852.2132990910457,835.49168748122,850.60157423753,0.16524251302083334,0.77471923828125,0.6482340494791666,-2.691650390625,5.303548177083333,4.383900960286458,0.9940552115440369,0.2164061814546585,-0.19554615020751953,0.8097629547119141,0.6136597990989685,-0.23715122044086456,-0.17548543214797974,0.7384437322616577,0.729992151260376,0.01809091493487358,-0.16988180577754974,0.8165619373321533,0.4994947016239166,-0.23573216795921326,-0.24102269113063812,0.39692065119743347,0.49071207642555237,-0.7434470653533936,-0.5490337014198303,0.1691035032272339
57,843.8292424128606,848.974362886869,850.5395906888522,830.4860487717849,845.5494478665865,0.143157958984375,0.763763427734375,0.6400960286458334,-2.6654815673828125,7.778371175130208,5.3795623779296875,0.9940552115440369,0.2164061814546585,-0.2092108428478241,0.8334115147590637,0.6236708760261536,-0.21955183148384094,-0.1620178371667862,0.760201632976532,0.7598178386688232,0.12998329102993011,-0.09962265193462372,0.8379169702529907,0.5288403630256653,-0.18673832714557648,-0.2389710396528244,0.389702707529068,0.484555721282959,-0.7335712313652039,-0.5167326927185059,0.1862802356481552
58,851.8568561260516,848.7109069824219,852.2133014385516,844.945056621845,846.4018085186298,0.17307535807291666,0.77545166015625,0.6854044596354166,0.8673095703125,20.05279541015625,-4.254302978515625,0.9940552115440369,0.2164061814546585,-0.23447498679161072,0.8534296751022339,0.6355693340301514,-0.20939071476459503,-0.15478743612766266,0.7801265120506287,0.7817324995994568,0.21206699311733246,-0.060963280498981476,0.8527442216873169,0.5499283671379089,-0.158817321062088,-0.24080844223499298,0.3941042721271515,0.47388774156570435,-0.7196267247200012,-0.4777630567550659,0.20848844945430756
59,855.2197805551382,849.0828411395734,852.2288020207332,865.0760779747596,853.7010427621694,0.15220133463541666,0.7799173990885416,0.6626383463541666,-2.8524017333984375,8.187103271484375,6.270548502604167,0.9940552115440369,0.2164061814546585,-0.25340408086776733,0.8660455942153931,0.6475929617881775,-0.2070094496011734,-0.15212707221508026,0.800416111946106,0.8006559014320374,0.26114124059677124,-0.04809829965233803,0.8693657517433167,0.5653474926948547,-0.14493145048618317,-0.24925893545150757,0.4053374230861664,0.4660431742668152,-0.7083838582038879,-0.44279658794403076,0.2408466637134552
60,856.7540165827825,837.7852924053485,864.3322096604568,866.2228839580829,843.0233882023738,0.116363525390625,0.7599283854166666,0.6523844401041666,-1.614990234375,7.3758697509765625,6.464945475260417,0.9940552115440369,0.2164061814546585,-0.2988230586051941,0.8660455942153931,0.6585009098052979,-0.21102407574653625,-0.1509920209646225,0.8218056559562683,0.8296586275100708,0.2931589186191559,-0.03879482299089432,0.9151111245155334,0.5783769488334656,-0.14054174721240997,-0.2535952031612396,0.416986346244812,0.4738685190677643,-0.7014781832695007,-0.4191695749759674,0.2849448621273041
61,851.8568631685697,846.5257779634916,853.8870145357572,852.8796856219952,848.4474510779747,0.11601765950520833,0.782470703125,0.669830322265625,-0.06853739420572917,9.440714518229166,0.019938151041666668,0.9940552115440369,0.2164061814546585,-0.3251716196537018,0.8660455942153931,0.6667727828025818,-0.2173413634300232,-0.14845053851604462,0.84006267786026,0.8611024618148804,0.31109151244163513,-0.023915443569421768,0.9944775104522705,0.5883849859237671,-0.13720300793647766,-0.2351468950510025,0.4225931465625763,0.5046749711036682,-0.6938208341598511,-0.40634727478027344,0.33774828910827637
62,847.8430621807391,845.2550001878005,853.329110952524,851.6243990384615,836.5609999436599,0.11829630533854167,0.76776123046875,0.6638081868489584,-2.1645355224609375,7.05810546875,6.4238230387369795,0.9940552115440369,0.2164616733789444,-0.20458538830280304,0.8660455942153931,0.6696451902389526,-0.21988403797149658,-0.1430688351392746,0.8464852571487427,0.8839990496635437,0.3308059573173523,0.012493070214986801,1.0861890316009521,0.5904632806777954,-0.11678757518529892,-0.17605772614479065,0.4160726070404053,0.5501748323440552,-0.6802922487258911,-0.3988461196422577,0.39213496446609497
63,804.3420691856971,857.2499342698318,842.8374187762921,808.5263460599459,856.1031259390024,0.10203043619791667,0.7643636067708334,0.65771484375,-2.1508280436197915,3.84307861328125,8.817647298177084,0.9830679297447205,0.23696236312389374,-0.04009219631552696,0.8660455942153931,0.6647256016731262,-0.21584723889827728,-0.13597112894058228,0.8365473747253418,0.917424738407135,0.3625538945198059,0.07978685200214386,1.1747113466262817,0.5844094157218933,-0.06724774837493896,-0.08313850313425064,0.40674304962158203,0.5934015512466431,-0.6614125370979309,-0.3932906985282898,0.44038718938827515
64,845.8593937800481,857.6373572716346,846.3243126502404,836.6384887695312,853.2206280048077,0.11280314127604167,0.7713216145833334,0.664886474609375,-1.1476898193359375,1.7246500651041667,6.8176015218098955,0.969597578048706,0.2663404643535614,0.11536161601543427,0.9351032972335815,0.6549895405769348,-0.20829302072525024,-0.1299782544374466,0.8181102871894836,0.9679676294326782,0.4072180986404419,0.1666637510061264,1.2479369640350342,0.591682493686676,0.0004701381840277463,0.013162442483007908,0.4306262731552124,0.6222284436225891,-0.6421599388122559,-0.3919382095336914,0.478150874376297
65,841.9385751577524,850.7100595327524,849.3462946965144,835.8171316293569,848.4784428523137,0.13163248697916666,0.7735392252604166,0.66900634765625,0.17695109049479166,-0.67291259765625,6.225687662760417,0.9593020677566528,0.2832593619823456,0.21446140110492706,1.1227431297302246,0.6519808173179626,-0.20220616459846497,-0.12583112716674805,0.812208890914917,1.0543924570083618,0.4561450779438019,0.2515958547592163,1.3096601963043213,0.6620199680328369,0.06802821159362793,0.09148621559143066,0.5368832349777222,0.6346278786659241,-0.6271613836288452,-0.39825859665870667,0.5056942105293274
66,839.6139714167668,849.9661865234375,850.1366671048678,840.4818279559796,851.4539301945613,0.12898084852430555,0.7699788411458334,0.6620076497395834,-2.8494940863715277,3.4459771050347223,6.849585639105903,1.0634019374847412,0.2832593619823456,0.2411569058895111,1.2899411916732788,0.6661449074745178,-0.19921869039535522,-0.12119508534669876,0.8337026238441467,1.1627869606018066,0.5087428689002991,0.3231363594532013,1.3619465827941895,0.7960522174835205,0.12000581622123718,0.1443820297718048,0.6935920119285583,0.6351857781410217,-0.617720365524292,-0.4112893044948578,0.5259419679641724
67,847.9205345740685,852.2907879169171,848.1530010516827,846.8357309194712,846.0453608586238,0.13828531901041666,0.7674763997395834,0.6624348958333334,-2.1931966145833335,4.304148356119792,6.063690185546875,1.1525828838348389,0.2819642424583435,0.2601749002933502,1.3436964750289917,0.6915941834449768,-0.19835329055786133,-0.11488524824380875,0.8724944591522217,1.261440396308899,0.5604363679885864,0.3760019540786743,1.407659888267517,0.9323621988296509,0.1511780470609665,0.175575390458107,0.8333274126052856,0.6306880712509155,-0.6115620732307434,-0.425132691860199,0.5413237810134888
68,844.7435889610878,849.8267141488882,850.6790654109075,850.3226224459135,849.0518446702224,0.12599690755208334,0.76824951171875,0.6624348958333334,-1.5302530924479167,5.3471628824869795,7.354685465494792,1.155502200126648,0.2807655930519104,0.26590192317962646,1.3447959423065186,0.7115822434425354,-0.20144198834896088,-0.11097551137208939,0.9058824181556702,1.3255804777145386,0.6023475527763367,0.4076571464538574,1.4396319389343262,1.0270122289657593,0.1600511372089386,0.19189542531967163,0.9245426058769226,0.6251706480979919,-0.6060872077941895,-0.433130145072937,0.5526542663574219
69,851.1439866286057,848.0910104604868,852.3992708646334,847.4246262770432,841.1637127216046,0.12795003255208334,0.7675984700520834,0.6621297200520834,0.6629435221354166,4.064890543619792,5.311024983723958,1.155502200126648,0.2793756425380707,0.26590192317962646,1.3447959423065186,0.714841902256012,-0.21134251356124878,-0.11478777974843979,0.9210967421531677,1.3550373315811157,0.6236439943313599,0.41773033142089844,1.4531636238098145,1.0729483366012573,0.14780879020690918,0.19807866215705872,0.970055341720581,0.6190618276596069,-0.60112065076828,-0.4344150125980377,0.560956597328186
70,846.1848379281851,850.5240971491887,851.639897273137,844.4956336388221,851.0819913423978,0.13312784830729166,0.771026611328125,0.6684468587239584,-1.1115519205729167,4.1483815511067705,6.3291168212890625,1.155502200126648,0.2779911160469055,0.26590192317962646,1.3447959423065186,0.7029062509536743,-0.22809384763240814,-0.12571564316749573,0.9194653034210205,1.3603101968765259,0.618338942527771,0.406873881816864,1.4553202390670776,1.084122896194458,0.11848562955856323,0.1964828073978424,0.9856609106063843,0.6113972067832947,-0.600171685218811,-0.43399062752723694,0.5683659911155701
71,844.7745830829327,850.9425260103666,849.1138376089243,841.535642183744,848.0755145733173,0.13382975260416666,0.7687174479166666,0.6627400716145834,-1.07666015625,2.6654815673828125,5.3533935546875,1.155502200126648,0.25675076246261597,0.26590192317962646,1.3447959423065186,0.6837126016616821,-0.24866162240505219,-0.13764265179634094,0.9089950919151306,1.355893611907959,0.5922345519065857,0.3862728774547577,1.4546527862548828,1.0820497274398804,0.08328218013048172,0.19063517451286316,0.9891491532325745,0.6007340550422668,-0.6070646643638611,-0.43966153264045715,0.5763140320777893
72,840.497319148137,848.6644122783954,853.1276409442609,847.6725839468149,848.3854581392728,0.130950927734375,0.7678120930989584,0.66302490234375,-2.294133504231771,3.8393402099609375,5.335947672526042,1.155502200126648,0.24287554621696472,0.26590192317962646,1.3447959423065186,0.6630581021308899,-0.2686309218406677,-0.14505180716514587,0.8970133066177368,1.3505616188049316,0.5551185607910156,0.3663761019706726,1.4532514810562134,1.0805126428604126,0.054282356053590775,0.18376359343528748,0.9888948202133179,0.586107075214386,-0.6234396696090698,-0.45732370018959045,0.583982527256012
73,845.0225384051984,847.1301715557391,850.4931030273438,849.0053523137019,852.1358102651743,0.14719645182291666,0.7738240559895834,0.6630452473958334,-1.9389851888020833,3.6137898763020835,4.772694905598958,1.155502200126648,0.24287554621696472,0.26590192317962646,1.3447959423065186,0.6412807703018188,-0.2835848033428192,-0.14858746528625488,0.8856697678565979,1.3449032306671143,0.5180761814117432,0.35462307929992676,1.449095368385315,1.0825779438018799,0.03761829808354378,0.17861595749855042,0.9869123697280884,0.5661808252334595,-0.6465815901756287,-0.48749735951423645,0.5879544019699097
74,844.8830636831431,849.0828387920673,852.352773813101,850.4311030461238,858.1952655498798,0.125885009765625,0.7646484375,0.6674702962239584,-2.600682576497396,5.9602610270182295,8.455022176106771,1.155502200126648,0.24287554621696472,0.26590192317962646,1.3447959423065186,0.6172717809677124,-0.2913937270641327,-0.15339477360248566,0.8736377358436584,1.3397178649902344,0.49153125286102295,0.3507714569568634,1.4433610439300537,1.0862318277359009,0.030648497864603996,0.17616009712219238,0.9845126867294312,0.5371513962745667,-0.6724122166633606,-0.5231010913848877,0.5835002660751343
75,863.5883366511418,843.4883117675781,860.054945725661,865.9749239408053,861.806142953726,0.14634195963541666,0.7627766927083334,0.660552978515625,-1.5464528401692708,2.685419718424479,5.051829020182292,1.155502200126648,0.24287554621696472,0.26590192317962646,1.3447959423065186,0.5909678339958191,-0.29368364810943604,-0.1635679453611374,0.8592396974563599,1.3310247659683228,0.4732530415058136,0.3488287031650543,1.430174708366394,1.0884941816329956,0.027623990550637245,0.1715347319841385,0.9818824529647827,0.49245133996009827,-0.6998624205589294,-0.5537477731704712,0.5671068429946899
76,853.5925645094651,849.7802217923678,853.360102726863,853.0036550668569,849.1448293832632,0.14835611979166666,0.7729085286458334,0.6650797526041666,-0.20685831705729166,6.512298583984375,8.393961588541666,1.155502200126648,0.24287554621696472,0.26590192317962646,1.3447959423065186,0.5642688274383545,-0.293131023645401,-0.17868046462535858,0.8439415097236633,1.3219572305679321,0.4635310769081116,0.34817031025886536,1.4050806760787964,1.089512586593628,0.023947954177856445,0.15608815848827362,0.9790849089622498,0.42603495717048645,-0.7310673594474792,-0.5745957493782043,0.5371790528297424
77,849.7647212101863,850.1521536020132,852.3062838040865,850.4930959848257,847.7965674767128,0.12890625,0.759735107421875,0.66802978515625,-2.109705607096354,5.869293212890625,10.188395182291666,1.155502200126648,0.24664196372032166,0.2640388309955597,1.3447959423065186,0.5388396382331848,-0.29325535893440247,-0.19545836746692657,0.8306848406791687,1.3189902305603027,0.4529396593570709,0.3444335460662842,1.3689992427825928,1.0917073488235474,0.016567612066864967,0.11883457750082016,0.9754385352134705,0.3368322551250458,-0.7692151665687561,-0.5917787551879883,0.49407607316970825
78,811.3158616286057,856.3355947641226,845.3634878305288,812.6021376389724,842.5119840181791,0.14737955729166666,0.7663065592447916,0.667449951171875,-1.0504913330078125,3.597590128580729,4.583282470703125,1.155502200126648,0.2425709366798401,0.2585437297821045,1.3447959423065186,0.5137247443199158,-0.2974506914615631,-0.21121664345264435,0.8193411231040955,1.3195931911468506,0.43571391701698303,0.3314734101295471,1.326167345046997,1.095839262008667,0.001939470530487597,0.053883977234363556,0.9695854187011719,0.23290179669857025,-0.814645528793335,-0.6126453876495361,0.4404337406158447
79,837.9092688927284,851.376450758714,848.1375028170072,836.8399493877704,841.0087350698618,0.14000447591145834,0.7644856770833334,0.6669921875,-2.005030314127604,4.6592966715494795,6.823832194010417,1.155502200126648,0.2355027198791504,0.2581232786178589,1.3447959423065186,0.48708611726760864,-0.3071216344833374,-0.22542868554592133,0.8046371936798096,1.3267956972122192,0.40771058201789856,0.3089248239994049,1.2893164157867432,1.0986467599868774,-0.022304672747850418,-0.03339667618274689,0.9608556628227234,0.1359994262456894,-0.8625479936599731,-0.6361901760101318,0.3822486400604248
80,840.171884390024,851.965346116286,850.7875483586238,841.6131310096154,848.3079763559194,0.13775634765625,0.7591349283854166,0.6674397786458334,-1.712188720703125,1.3358561197916667,4.491068522135417,1.1699672937393188,0.18338444828987122,0.23875898122787476,1.3466709852218628,0.4573221504688263,-0.31939002871513367,-0.2384619414806366,0.7793377041816711,1.3297295570373535,0.37034887075424194,0.27927806973457336,1.2660276889801025,1.0920977592468262,-0.05678528919816017,-0.12893791496753693,0.9474687576293945,0.07844004034996033,-0.9052921533584595,-0.65665602684021,0.3289852440357208
81,848.292475773738,850.6945636455829,853.5925645094651,851.4074401855469,849.1758235051082,0.15252685546875,0.7618611653645834,0.666107177734375,-1.9651540120442708,2.271703084309896,2.3302714029947915,1.2300083637237549,0.15352816879749298,0.1492585390806198,1.3526530265808105,0.42265990376472473,-0.32939040660858154,-0.250257670879364,0.7388870716094971,1.3190293312072754,0.31483763456344604,0.24800577759742737,1.256588101387024,1.0681487321853638,-0.09305649250745773,-0.2163964807987213,0.9288630485534668,0.07321778684854507,-0.9374464154243469,-0.6726144552230835,0.28846558928489685
82,860.9382934570312,842.511974628155,859.791489821214,869.7872596153846,849.4237858698918,0.15150960286458334,0.7647908528645834,0.6651814778645834,-1.0143534342447917,4.296671549479167,5.30853271484375,1.2593715190887451,0.15766595304012299,-0.007680091541260481,1.2940477132797241,0.3856147825717926,-0.3338971436023712,-0.25989803671836853,0.6865748763084412,1.299048662185669,0.24083933234214783,0.2297748178243637,1.25723135471344,1.0262893438339233,-0.11746089905500412,-0.286281019449234,0.9063549637794495,0.09753257781267166,-0.9578238725662231,-0.6891525387763977,0.2614682912826538
83,855.9481576772837,856.4440659743088,856.7075265737681,854.9253328763522,850.4156001164363,0.14518229166666666,0.763641357421875,0.6645914713541666,0.18193562825520834,3.4642537434895835,8.335393269856771,1.2496814727783203,0.16015459597110748,-0.1917106658220291,1.2172224521636963,0.3532772958278656,-0.33236178755760193,-0.2643454074859619,0.6352069973945618,1.2854195833206177,0.15543241798877716,0.23481522500514984,1.2678484916687012,0.9788533449172974,-0.11842415481805801,-0.3360142111778259,0.8876175880432129,0.12478359788656235,-0.9649109244346619,-0.7103913426399231,0.24623604118824005
84,851.3415730794271,858.6950531005859,855.1694157918295,851.1233215332031,844.827532450358,0.14632161458333334,0.769256591796875,0.6637674967447916,-1.9377390543619792,6.978352864583333,5.8381398518880205,1.2375116348266602,0.16075915098190308,-0.252991646528244,1.2173693180084229,0.33509430289268494,-0.3218325078487396,-0.25800684094429016,0.6008651852607727,1.2838550806045532,0.10040006041526794,0.25457122921943665,1.2904071807861328,0.9447861909866333,-0.09205079823732376,-0.3612903356552124,0.8816536068916321,0.15130966901779175,-0.956649124622345,-0.7322862148284912,0.2445339560508728
85,842.6824481670673,865.9749286358173,849.3772841233474,834.9337838979868,845.564950796274,0.14024861653645834,0.7626139322916666,0.6663818359375,-2.376378377278646,4.511006673177083,5.30853271484375,1.2359216213226318,0.17498824000358582,-0.20919173955917358,1.2173693180084229,0.33802807331085205,-0.30020129680633545,-0.24004553258419037,0.5879812240600586,1.2954233884811401,0.13902103900909424,0.2832878828048706,1.3214130401611328,0.93305504322052,-0.03769400715827942,-0.3594995439052582,0.8944199681282043,0.18438319861888885,-0.9354744553565979,-0.7463448643684387,0.2570432424545288
86,845.3479942908654,866.0989004281851,846.0143714317909,839.3350172776443,841.1017150878906,0.14821370442708334,0.7614339192708334,0.66986083984375,-1.6112518310546875,3.2262420654296875,4.520975748697917,1.2359216213226318,0.19605009257793427,-0.13319459557533264,1.2173693180084229,0.36253219842910767,-0.2712099254131317,-0.21566303074359894,0.587225615978241,1.3145159482955933,0.2538880705833435,0.31861504912376404,1.3565094470977783,0.9330742359161377,0.028074020519852638,-0.3395729660987854,0.9179725646972656,0.2218102663755417,-0.9111160039901733,-0.7512125372886658,0.27595534920692444
87,845.0225384051984,863.6968195988582,853.1741333007812,844.6196077786959,843.0698829064003,0.14969889322916666,0.7694905598958334,0.6638387044270834,-2.0735677083333335,5.09918212890625,4.423777262369792,1.2359216213226318,0.23446883261203766,-0.055331040173769,1.2173693180084229,0.4013831317424774,-0.24011287093162537,-0.1882912516593933,0.5888747572898865,1.330690860748291,0.37451502680778503,0.3505428433418274,1.3866190910339355,0.9337846040725708,0.09163642674684525,-0.3089248239994049,0.9440442323684692,0.2532539665699005,-0.8905593752861023,-0.7507601976394653,0.29386258125305176
88,846.2003361628606,864.3012155386118,852.7712050217849,846.4482938326322,850.0746671236478,0.13657633463541666,0.7591654459635416,0.6701558430989584,-3.3695475260416665,4.967091878255208,4.847462972005208,1.2359216213226318,0.24306456744670868,0.011849203146994114,1.2205196619033813,0.4420809745788574,-0.21034027636051178,-0.15794749557971954,0.5905835032463074,1.3403127193450928,0.46585404872894287,0.37818923592567444,1.4104678630828857,0.933066189289093,0.14435341954231262,-0.27180761098861694,0.9683769941329956,0.2724873721599579,-0.8738552927970886,-0.7478702664375305,0.30782172083854675
89,841.7061204176682,868.6869483360878,852.9106820913462,848.7728928786057,847.5331092247596,0.14129638671875,0.758056640625,0.6687215169270834,-1.607513427734375,3.3147176106770835,3.3595784505208335,1.2359216213226318,0.24306456744670868,0.05610409006476402,1.2205196619033813,0.47336602210998535,-0.18414752185344696,-0.12620706856250763,0.5922893285751343,1.3459802865982056,0.5211061239242554,0.4066280722618103,1.4305752515792847,0.9327758550643921,0.18143923580646515,-0.2288813591003418,0.990833044052124,0.28220465779304504,-0.859099805355072,-0.7407642006874084,0.31994393467903137
90,857.4281510573167,859.2025874211238,857.6218696007362,856.9399836613582,851.4074378380409,0.1393585205078125,0.7610626220703125,0.6722819010416666,-2.03369140625,4.132181803385417,5.7035573323567705,1.2359216213226318,0.24306456744670868,0.09237346425652504,1.2252485156059265,0.4962298572063446,-0.16230808943510056,-0.09285201132297516,0.5893047451972961,1.3483471870422363,0.5559322237968445,0.4396832585334778,1.4484776854515076,0.931751936674118,0.20747246593236923,-0.14993244037032127,1.0202616453170776,0.28756333887577057,-0.8393910825252533,-0.7246333360671997,0.33341802656650543
91,850.4466083233173,846.5257779634916,855.9326617901141,852.9261709359976,854.7083669809194,0.13947550455729166,0.7553304036458334,0.6706644694010416,-1.4567311604817708,4.5521291097005205,5.1427968343098955,1.2359216213226318,0.2426411509513855,0.11123501509428024,1.2259879112243652,0.5069966912269592,-0.16595016419887543,-0.08483530580997467,0.5746262073516846,1.3447078466415405,0.5812082886695862,0.44904255867004395,1.453058123588562,0.9259557723999023,0.20509223639965057,-0.07424314320087433,1.044469952583313,0.2840536832809448,-0.8167279958724976,-0.7143902778625488,0.3374892473220825
92,846.2933208759015,847.5950998159556,852.1203167255109,848.3389728252704,839.4435072678787,0.13932291666666666,0.7626749674479166,0.6796671549479166,-0.4909769694010417,4.254302978515625,5.949045817057292,1.2359216213226318,0.22384199500083923,0.11347812414169312,1.2272205352783203,0.5137597918510437,-0.17359496653079987,-0.08969248086214066,0.558383584022522,1.342207670211792,0.6191682815551758,0.4422236680984497,1.4491949081420898,0.9233397245407104,0.18613196909427643,-0.038616079837083817,1.0590318441390991,0.27939319610595703,-0.7780941724777222,-0.7134658098220825,0.3375612497329712
93,843.6897629957932,849.2223158616287,851.996335543119,846.4947885366587,842.2020240196815,0.1415283203125,0.76092529296875,0.67142333984375,-1.3670094807942708,3.1514739990234375,5.460561116536458,1.2359216213226318,0.22069776058197021,0.11402678489685059,1.230766773223877,0.5187954306602478,-0.16640761494636536,-0.0925578847527504,0.5374622344970703,1.3385642766952515,0.6807351112365723,0.4374524652957916,1.4411587715148926,0.9241147041320801,0.16046485304832458,-0.012743523344397545,1.0704396963119507,0.2757597863674164,-0.7075703740119934,-0.713572084903717,0.33932429552078247
94,842.0160569411057,845.3634784405048,850.7100595327524,843.519301194411,843.9842200646034,0.13887532552083334,0.758941650390625,0.6718343098958334,-2.0237223307291665,4.722849527994792,5.806986490885417,1.2359216213226318,0.21162129938602448,0.11402678489685059,1.230766773223877,0.5133765339851379,-0.1424783319234848,-0.09271242469549179,0.5029184818267822,1.3273601531982422,0.7475250363349915,0.4398271441459656,1.4244117736816406,0.9138063788414001,0.1346069872379303,0.00735276797786355,1.0668772459030151,0.2672879099845886,-0.623738706111908,-0.7131524085998535,0.3404133915901184
95,842.0160569411057,850.6790630634015,853.9490027794471,842.3570063664363,840.9932344876803,0.142181396484375,0.7614847819010416,0.6708577473958334,-1.2760416666666667,3.7209574381510415,5.27862548828125,1.2359216213226318,0.19401432573795319,0.11402678489685059,1.2288352251052856,0.4919278919696808,-0.11532635986804962,-0.09499872475862503,0.44737550616264343,1.301371455192566,0.7940798401832581,0.44245830178260803,1.3946385383605957,0.8754542469978333,0.11312984675168991,0.023154865950345993,1.0389257669448853,0.24695464968681335,-0.5552778244018555,-0.7131407856941223,0.3370296359062195
96,837.0724158653846,846.1693349984976,853.6390592134916,837.0724111703726,842.3260052020734,0.142120361328125,0.7566121419270834,0.675018310546875,-2.0685831705729165,4.2231496175130205,5.7259877522786455,1.1874058246612549,0.18039265275001526,0.11111433058977127,1.1747099161148071,0.4587269723415375,-0.09755303710699081,-0.10278778523206711,0.3744618892669678,1.2549748420715332,0.8137136101722717,0.43651309609413147,1.3476696014404297,0.8066520690917969,0.09678233414888382,0.032672781497240067,0.9897621273994446,0.21608960628509521,-0.5169742703437805,-0.7150006890296936,0.3280937969684601
97,812.9430847167969,850.7410513070913,841.9230722280649,809.2547255295974,851.8413672814003,0.142333984375,0.7542317708333334,0.66900634765625,-1.517791748046875,4.608205159505208,4.366455078125,1.0340726375579834,0.17291240394115448,0.10514665395021439,1.040391445159912,0.42781099677085876,-0.090830959379673,-0.11525697261095047,0.30261507630348206,1.1938124895095825,0.8177773952484131,0.4178321659564972,1.2908527851104736,0.7273150086402893,0.08390828967094421,0.036175068467855453,0.9370912313461304,0.18335482478141785,-0.5059590935707092,-0.7194669246673584,0.31373852491378784
98,824.9070129394531,852.1048255333534,843.6897653432993,822.0555091271034,857.683851975661,0.13751220703125,0.7601420084635416,0.6747029622395834,-1.3620249430338542,4.398854573567708,5.904184977213542,0.8836715817451477,0.17577974498271942,0.09529221057891846,0.8940653800964355,0.41457730531692505,-0.09044213593006134,-0.12982533872127533,0.2569441497325897,1.1374053955078125,0.8131027221679688,0.3977508544921875,1.238031029701233,0.6773534417152405,0.06995710730552673,0.035507045686244965,0.9033498167991638,0.1523212492465973,-0.5095744132995605,-0.7269341945648193,0.2915176451206207
99,847.0526850773738,848.7264005220853,847.8430504432091,844.8675677959735,845.7354125976562,0.14068603515625,0.7557373046875,0.6738077799479166,-1.7819722493489583,3.5689290364583335,5.522867838541667,0.9351802468299866,0.18023407459259033,0.10954000055789948,0.982463002204895,0.4278380274772644,-0.09355563670396805,-0.14392344653606415,0.2617555856704712,1.109769582748413,0.7967744469642639,0.39836758375167847,1.2051440477371216,0.7013774514198303,0.04208797216415405,0.03412986919283867,0.907041072845459,0.11643163114786148,-0.5146563053131104,-0.7345777750015259,0.2580307722091675
100,836.9949317345253,840.3578491210938,855.6072176419772,844.1856924203726,844.5421236478365,0.1401611328125,0.75906982421875,0.67254638671875,-1.1377207438151042,4.3078867594401045,5.4667917887369795,1.2027668952941895,0.14949063956737518,0.1790304183959961,1.2755815982818604,0.4635094702243805,-0.09867000579833984,-0.15450116991996765,0.32019588351249695,1.125437617301941,0.7648312449455261,0.4257197678089142,1.2074769735336304,0.7990727424621582,-0.008772428147494793,0.036238040775060654,0.952171266078949,0.0746796652674675,-0.5138142108917236,-0.7353506684303284,0.21560411155223846
101,845.952378493089,844.8830636831431,848.4164569561298,840.1253826434796,852.4147714468149,0.137237548828125,0.7594502766927084,0.6729024251302084,-2.0361836751302085,4.94964599609375,5.0480906168619795,1.3709197044372559,0.11697486788034439,0.25463271141052246,1.4443929195404053,0.5054634809494019,-0.10609585791826248,-0.16316953301429749,0.40048643946647644,1.183174729347229,0.7238496541976929,0.4696829319000244,1.2499972581863403,0.917238712310791,-0.08613037317991257,0.04335034266114235,1.0164610147476196,0.03873882815241814,-0.5040524005889893,-0.7272587418556213,0.17145995795726776
102,849.0673475999099,844.1546936035156,855.2352740948016,849.7957223745493,849.299802339994,0.13691202799479166,0.755523681640625,0.6771341959635416,-1.8903859456380208,3.6374664306640625,5.094197591145833,1.388189435005188,0.07970216125249863,0.28675729036331177,1.4744393825531006,0.5366206169128418,-0.11646066606044769,-0.17723654210567474,0.4654772877693176,1.25820791721344,0.6891723871231079,0.5119466185569763,1.311893343925476,1.008967638015747,-0.1852591186761856,0.053725466132164,1.068450689315796,0.02143622748553753,-0.4875370264053345,-0.7145963311195374,0.13348913192749023
103,845.7509202223557,846.3708097017728,848.974360539363,844.1081988994891,848.6024287297175,0.144287109375,0.7557169596354166,0.67266845703125,-1.5576680501302083,4.094797770182292,3.9602152506510415,1.388189435005188,0.018150465562939644,0.2876254916191101,1.4744393825531006,0.5510026216506958,-0.12918633222579956,-0.20196950435638428,0.5004091262817383,1.3153889179229736,0.6731182336807251,0.5352214574813843,1.3569475412368774,1.05994713306427,-0.2838066518306732,0.06316293776035309,1.0915971994400024,0.022816896438598633,-0.4694054126739502,-0.7032710313796997,0.10575301945209503
104,845.170693359375,845.2029272460937,850.9890087890625,848.1685009765625,844.4937719726563,0.13382975260416666,0.7597249348958334,0.6746317545572916,-1.5290069580078125,4.7016652425130205,4.947153727213542,1.388189435005188,-0.047164496034383774,0.26177141070365906,1.4744393825531006,0.5536166429519653,-0.140522763133049,-0.2308894693851471,0.5123873353004456,1.3476301431655884,0.6731553077697754,0.5438591241836548,1.377821922302246,1.079025149345398,-0.3476158678531647,0.07479121536016464,1.0895934104919434,0.03446938842535019,-0.45448681712150574,-0.6932977437973022,0.0909404307603836
105,861.8371394230769,845.6579308143029,853.4685880220853,864.7661297137921,841.6286292442909,0.135009765625,0.7558390299479166,0.6741536458333334,-1.8068949381510417,4.341532389322917,4.897308349609375,1.388189435005188,-0.09378941357135773,0.240083709359169,1.4744393825531006,0.5515662431716919,-0.14683155715465546,-0.24981555342674255,0.5158978700637817,1.3591842651367188,0.6732641458511353,0.5449084043502808,1.379737377166748,1.0826698541641235,-0.35961028933525085,0.09612894803285599,1.0763959884643555,0.05006630718708038,-0.4457453489303589,-0.6824013590812683,0.08813532441854477
106,864.8436161921575,848.3079787034255,855.3127629206731,870.0042278583234,843.8137465256912,0.1265869140625,0.7595418294270834,0.6786092122395834,-1.7072041829427083,4.446207682291667,5.121612548828125,1.388189435005188,-0.09916859120130539,0.24131044745445251,1.4744393825531006,0.5475349426269531,-0.14908622205257416,-0.2512924373149872,0.5194251537322998,1.360353708267212,0.6629663705825806,0.5472334027290344,1.3778280019760132,1.0814789533615112,-0.32712340354919434,0.12546606361865997,1.0624061822891235,0.061914604157209396,-0.44441837072372437,-0.6731042265892029,0.08746139705181122
107,853.2516150841346,850.9425213153546,852.0273367074819,853.716538649339,859.8069857083834,0.1308932834201389,0.7556898328993056,0.6773817274305556,-1.9580925835503473,3.9602152506510415,4.691280788845486,1.388189435005188,-0.08012821525335312,0.2693895399570465,1.4744393825531006,0.5412411093711853,-0.15298902988433838,-0.2397424727678299,0.5229934453964233,1.3547008037567139,0.6242174506187439,0.5464850664138794,1.3777825832366943,1.0764974355697632,-0.277055025100708,0.14734657108783722,1.0473716259002686,0.06434134393930435,-0.45573392510414124,-0.6716809272766113,0.0768410935997963
108,854.5843881460337,852.4767549954928,852.4302626389724,855.2662752591647,845.3014925443209,0.12778727213541666,0.7498779296875,0.6763916015625,-1.4330546061197917,4.0673828125,4.842478434244792,1.388189435005188,-0.0793401375412941,0.2825928032398224,1.4744393825531006,0.53526371717453,-0.1610945463180542,-0.22235144674777985,0.5273070335388184,1.345121145248413,0.5429803729057312,0.5364804863929749,1.380319595336914,1.0670369863510132,-0.22089943289756775,0.14971572160720825,1.0295612812042236,0.05975295603275299,-0.48659151792526245,-0.6801607012748718,0.05395079031586647
109,849.4857764610878,855.8706735464243,853.4065974308894,848.0910034179688,845.8439002403846,0.13133748372395834,0.757293701171875,0.6765034993489584,-1.3071950276692708,4.416300455729167,4.752756754557292,1.388189435005188,-0.07276005297899246,0.2757618725299835,1.4744393825531006,0.5323725342750549,-0.17194050550460815,-0.20580285787582397,0.5326687097549438,1.3353075981140137,0.41806522011756897,0.5165506601333618,1.3869930505752563,1.0556410551071167,-0.16664938628673553,0.1332826018333435,1.0120888948440552,0.0545063279569149,-0.5371561050415039,-0.6918914318084717,0.02574785239994526
110,843.5106201171875,850.3443237304688,851.5047631835937,841.9794873046875,850.4249047851563,0.12522379557291666,0.7585856119791666,0.6796468098958334,-1.4554850260416667,4.299163818359375,5.388285319010417,1.388189435005188,-0.054422855377197266,0.2768715023994446,1.4744393825531006,0.5324236154556274,-0.18315750360488892,-0.19472944736480713,0.5371597409248352,1.3287791013717651,0.2904776334762573,0.49435722827911377,1.3977371454238892,1.0460175275802612,-0.12276585400104523,0.1105256974697113,1.000563144683838,0.052199870347976685,-0.5944640636444092,-0.6961961388587952,0.002035588724538684
111,838.2502089280349,848.1994910606971,850.7565542367788,842.6514470027043,844.4181495079628,0.1300048828125,0.757904052734375,0.675079345703125,-1.5464528401692708,4.0262603759765625,5.1178741455078125,1.388189435005188,-0.05944221094250679,0.273721843957901,1.4744393825531006,0.5333878993988037,-0.19421935081481934,-0.18970127403736115,0.5388308167457581,1.3284711837768555,0.22144682705402374,0.47509515285491943,1.4087893962860107,1.041234016418457,-0.09342601895332336,0.09439409524202347,0.9989250898361206,0.0514351986348629,-0.6380195617675781,-0.6868661046028137,-0.011581899598240852
112,849.5632605919471,854.1969557542068,853.6080557016226,845.3789813701923,850.6480689415565,0.12520345052083334,0.7572224934895834,0.6765340169270834,-1.143951416015625,4.3365478515625,5.283610026041667,1.388189435005188,-0.05944221094250679,0.273721843957901,1.4744393825531006,0.5327600836753845,-0.2060394585132599,-0.1881987303495407,0.5368812084197998,1.332113265991211,0.21353833377361298,0.4627613425254822,1.4174777269363403,1.04024076461792,-0.07905694097280502,0.08726046979427338,1.003456473350525,0.04845196008682251,-0.659956157207489,-0.66814124584198,-0.016292769461870193
113,851.1749807504507,849.8732018103966,853.4220933180588,851.5004248985878,846.5722726675181,0.1271633572048611,0.7569037543402778,0.6767306857638888,-1.7180040147569444,3.891262478298611,5.564405653211805,1.388189435005188,-0.05944221094250679,0.273721843957901,1.4744393825531006,0.5251438021659851,-0.2195819467306137,-0.18831278383731842,0.5284493565559387,1.3369512557983398,0.2303628772497177,0.45189669728279114,1.4214286804199219,1.0360991954803467,-0.07774664461612701,0.0840647965669632,1.0043513774871826,0.04129651188850403,-0.6713578104972839,-0.6491856575012207,-0.01742664910852909
114,824.524541015625,852.7296655273437,850.521611328125,822.4615405273438,848.2490869140624,0.12799072265625,0.7579752604166666,0.67987060546875,-1.3184102376302083,4.872385660807292,5.166473388671875,1.388189435005188,-0.05944221094250679,0.273721843957901,1.4744393825531006,0.49860960245132446,-0.23491114377975464,-0.192363902926445,0.5027424693107605,1.3317782878875732,0.24518249928951263,0.4248051047325134,1.4117438793182373,1.01194429397583,-0.08264120668172836,0.07937365770339966,0.983527421951294,0.030925730243325233,-0.6847036480903625,-0.6373180747032166,-0.01982366107404232
115,837.6458129882812,855.6227064866287,846.4482985276443,834.5618450458234,846.4637897198016,0.12858072916666666,0.752410888671875,0.6773173014322916,-1.5875752766927083,3.9751688639322915,5.2250417073567705,1.388189435005188,-0.05962545797228813,0.273721843957901,1.4744393825531006,0.4437364637851715,-0.2521279454231262,-0.20333856344223022,0.44981059432029724,1.3043571710586548,0.2509327232837677,0.363957017660141,1.3772099018096924,0.9487654566764832,-0.08245734125375748,0.07002119719982147,0.9248594045639038,0.021374095231294632,-0.7018340826034546,-0.6344444751739502,-0.023069685325026512
116,836.7469717172476,849.950688288762,850.2916353665865,841.5201439490685,849.4702711838943,0.128997802734375,0.75665283203125,0.6791483561197916,-1.1676279703776042,4.418792724609375,5.998891194661458,1.3764957189559937,-0.05962545797228813,0.2687491774559021,1.4529271125793457,0.3731646239757538,-0.26693934202194214,-0.21528580784797668,0.38636547327041626,1.256086826324463,0.24423959851264954,0.2701106071472168,1.3206356763839722,0.8458394408226013,-0.06810111552476883,0.05581946298480034,0.8380036950111389,0.02422216907143593,-0.7212852239608765,-0.6361578106880188,-0.01746411994099617
117,839.4125061035156,847.9825298602765,852.3682720477765,841.892080453726,849.7647306002103,0.12571207682291666,0.7563069661458334,0.6752115885416666,-1.188812255859375,4.239349365234375,4.962107340494792,1.2294695377349854,-0.05962545797228813,0.2729856073856354,1.3072090148925781,0.32870134711265564,-0.27292752265930176,-0.2155621349811554,0.3620133399963379,1.2034887075424194,0.22140881419181824,0.15813089907169342,1.260049819946289,0.7422242760658264,-0.04132639244198799,0.037621743977069855,0.775547444820404,0.04789341613650322,-0.7427471280097961,-0.6356857419013977,0.005674658343195915
118,839.1800466684194,850.6015812800481,849.7802147498497,841.9385775052584,844.6815983698918,0.126220703125,0.7597147623697916,0.675750732421875,-0.9869384765625,4.884847005208333,5.303548177083333,1.0923480987548828,-0.05575305595993996,0.27456140518188477,1.1971579790115356,0.34378424286842346,-0.26658716797828674,-0.19749973714351654,0.40745654702186584,1.1693267822265625,0.19050326943397522,0.06712175905704498,1.2239949703216553,0.7034711837768555,-0.01488315500319004,0.014570724219083786,0.7871712446212769,0.08482757210731506,-0.7645201086997986,-0.6308049559593201,0.04227149114012718
119,841.7061133751503,847.7500704251803,851.314455472506,841.7991027832031,848.4474510779747,0.12317911783854167,0.7581787109375,0.6760660807291666,-1.4068857828776042,4.6356201171875,5.722249348958333,1.0982998609542847,-0.0610632561147213,0.27456140518188477,1.2025598287582397,0.39737027883529663,-0.2516949772834778,-0.1700407713651657,0.4872641861438751,1.1582422256469727,0.16905012726783752,0.013022715225815773,1.2204883098602295,0.7358564138412476,-0.0024805336724966764,-0.02517744153738022,0.8439112901687622,0.11779762804508209,-0.7809272408485413,-0.6255151033401489,0.0786445140838623
120,849.8267094538762,845.9988685021034,852.67822265625,851.0819936899038,847.3781362680288,0.12279256184895833,0.7572530110677084,0.6765543619791666,-1.8729400634765625,4.034983317057292,6.4437611897786455,1.0982998609542847,-0.06286080181598663,0.27456140518188477,1.2025598287582397,0.4495018422603607,-0.23481497168540955,-0.14774355292320251,0.5553168654441833,1.1608545780181885,0.16660895943641663,-0.015687646344304085,1.2345246076583862,0.7803288698196411,-0.00802147388458252,-0.09955967217683792,0.8885180354118347,0.13649602234363556,-0.7832983136177063,-0.6240112781524658,0.10511273890733719
121,867.3231834998497,836.1270728478065,859.2800832895132,874.2194988544171,844.3406536395734,0.12630208333333334,0.7599080403645834,0.6799723307291666,-1.5078226725260417,4.899800618489583,4.762725830078125,1.0982998609542847,-0.06286080181598663,0.2722875475883484,1.2025598287582397,0.483659952878952,-0.22083882987499237,-0.13943350315093994,0.59865802526474,1.1657795906066895,0.17667165398597717,-0.03319822996854782,1.245928406715393,0.8050170540809631,-0.02468479983508587,-0.2132851928472519,0.9045615196228027,0.14304880797863007,-0.7713655829429626,-0.6251888275146484,0.12023889273405075
122,855.0648099459135,850.307131253756,854.7238699106069,857.9938002366287,841.4271592360276,0.12879435221354166,0.7539876302083334,0.6770121256510416,-1.697235107421875,3.6187744140625,5.6861114501953125,1.0982998609542847,-0.037695158272981644,0.2599833011627197,1.2025598287582397,0.501284122467041,-0.2151520550251007,-0.14670364558696747,0.624047577381134,1.1654595136642456,0.1981540322303772,-0.04493706673383713,1.2476420402526855,0.813244640827179,-0.03880525752902031,-0.3341616690158844,0.9036518931388855,0.14651837944984436,-0.7526007294654846,-0.6234772801399231,0.12946248054504395
123,843.4573082557091,849.5477576622596,852.2752896822416,842.5274775578425,844.6506089430588,0.13260904947916666,0.75543212890625,0.6808064778645834,-1.6573588053385417,4.244333902994792,5.804494222005208,1.0982998609542847,0.028813760727643967,0.3167022466659546,1.2025598287582397,0.5066733956336975,-0.22127765417099,-0.1673322468996048,0.6405824422836304,1.1624778509140015,0.244339257478714,-0.040249817073345184,1.249953269958496,0.8124258518218994,-0.03231560438871384,-0.3948363959789276,0.8981315493583679,0.1540963500738144,-0.7378118634223938,-0.6150937676429749,0.1390017718076706
124,845.1310237004207,850.3536259577825,850.6480783315806,845.3479895958534,842.8219252366287,0.12684122721354166,0.7565409342447916,0.6774393717447916,-1.4741770426432292,4.842478434244792,5.8879852294921875,1.0982998609542847,0.04994271323084831,0.34989920258522034,1.2025598287582397,0.5045143961906433,-0.23571598529815674,-0.19487705826759338,0.6542553901672363,1.1631468534469604,0.3130527436733246,-0.011123576201498508,1.2615747451782227,0.804889976978302,0.0021213721483945847,-0.3726690411567688,0.8917070627212524,0.16737382113933563,-0.7329632639884949,-0.601567804813385,0.1522391438484192
125,835.9876051682693,846.9442091721755,855.5142235389122,839.0095825195312,847.5176133375901,0.12648518880208334,0.7572021484375,0.67633056640625,-0.91217041015625,4.3502553304036455,5.4867299397786455,1.0982998609542847,0.04697255417704582,0.334363728761673,1.2025598287582397,0.5002710223197937,-0.24884124100208282,-0.2206379771232605,0.667544960975647,1.1726315021514893,0.37971532344818115,0.023188166320323944,1.2807698249816895,0.7938844561576843,0.0492779016494751,-0.3247445821762085,0.8840897679328918,0.18266578018665314,-0.7357426881790161,-0.5879725217819214,0.16771656274795532
126,843.4263164813702,849.2843088003306,852.4302602914663,842.3879957932693,853.9954951359675,0.123565673828125,0.7566019694010416,0.6763509114583334,-1.6062672932942708,4.565836588541667,5.183919270833333,1.0982998609542847,0.051908932626247406,0.26893991231918335,1.2025598287582397,0.4973854124546051,-0.25322335958480835,-0.23811186850070953,0.6789053082466125,1.1850881576538086,0.42732134461402893,0.054502710700035095,1.302518367767334,0.7840625643730164,0.08777667582035065,-0.2921847701072693,0.8755561113357544,0.19389404356479645,-0.7400075197219849,-0.579986572265625,0.1804274469614029
127,851.8413672814003,857.001967210036,848.8038870004507,847.4246239295372,854.1659522423378,0.12493896484375,0.7573038736979166,0.67852783203125,-1.3819630940755208,4.2854563395182295,5.6786346435546875,1.0982998609542847,0.052070099860429764,0.23977956175804138,1.2025598287582397,0.4960128962993622,-0.25007614493370056,-0.24630673229694366,0.6866166591644287,1.1966439485549927,0.44892773032188416,0.07721549272537231,1.3184354305267334,0.7790095210075378,0.1081148087978363,-0.27149850130081177,0.8679820895195007,0.1971721202135086,-0.7410053610801697,-0.5795847177505493,0.1878761202096939
128,845.5804396409255,849.2533123309796,849.2068129319412,843.5967900202825,852.2133014385516,0.12320963541666667,0.7701009114583334,0.69561767578125,-3.9876302083333335,7.740987141927083,5.298563639322917,1.0982998609542847,0.052070099860429764,0.2379058450460434,1.2025598287582397,0.49519583582878113,-0.24460716545581818,-0.245965838432312,0.691362738609314,1.2042737007141113,0.45019781589508057,0.09363651275634766,1.3267529010772705,0.777625560760498,0.11506672948598862,-0.24671819806098938,0.8623570203781128,0.19452311098575592,-0.7382511496543884,-0.5827977657318115,0.19392868876457214
129,842.8684152456431,850.8650324894832,850.6170724722056,843.5038076547476,850.8030395507812,0.122222900390625,0.7344970703125,0.67742919921875,-6.634419759114583,8.513590494791666,7.990214029947917,1.0982998609542847,0.052070099860429764,0.2379058450460434,1.2025598287582397,0.4951009452342987,-0.236066997051239,-0.23282958567142487,0.695785641670227,1.2079508304595947,0.4491887092590332,0.11075104773044586,1.3299243450164795,0.7756738662719727,0.11958292126655579,-0.21411661803722382,0.8572714924812317,0.19225279986858368,-0.7328490614891052,-0.5839877128601074,0.20623493194580078
130,843.7517653245193,850.8495366023137,850.0281771146334,845.3169860839844,848.261479304387,0.1256103515625,0.7432657877604166,0.6885986328125,2.2629801432291665,3.0854288736979165,1.8368021647135417,1.0982998609542847,0.05880967155098915,0.24232524633407593,1.2025598287582397,0.4947258234024048,-0.22043301165103912,-0.20414189994335175,0.7015164494514465,1.2070684432983398,0.4567636251449585,0.1314888298511505,1.3284467458724976,0.7684317231178284,0.12816683948040009,-0.18314746022224426,0.8481308221817017,0.19355298578739166,-0.7279086112976074,-0.5820140242576599,0.22515808045864105
131,839.520991398738,847.7190763033353,853.5150780310997,841.5821321927584,849.4547752967247,0.11749267578125,0.7578870985243056,0.6826104058159722,1.4172702365451388,4.287533230251736,6.273040771484375,1.0982998609542847,0.09086602181196213,0.25059911608695984,1.2025598287582397,0.4858059585094452,-0.20048172771930695,-0.1693917214870453,0.7015822529792786,1.194211721420288,0.46929433941841125,0.14714409410953522,1.315937876701355,0.7455399036407471,0.13746878504753113,-0.1632615476846695,0.820894181728363,0.1923031359910965,-0.7273402810096741,-0.5815331339836121,0.23865915834903717
132,835.9101116473859,850.2761418269231,852.3062838040865,840.9932391826923,840.7142873910757,0.11606852213541667,0.7567952473958334,0.6805013020833334,-1.5128072102864583,4.144643147786458,5.96649169921875,1.0982998609542847,0.1251220852136612,0.2539248466491699,1.2025598287582397,0.45755240321159363,-0.18664894998073578,-0.14441804587841034,0.6847079396247864,1.1623759269714355,0.4773067533969879,0.146949902176857,1.2852375507354736,0.6904492974281311,0.14305812120437622,-0.15609295666217804,0.7565374374389648,0.17805741727352142,-0.7327807545661926,-0.5885292887687683,0.23277311027050018
133,840.5438138521635,849.2378164438101,853.2516197791466,843.7517676720253,840.202869121845,0.11919148763020833,0.7581685384114584,0.6750691731770834,-1.2498728434244792,3.3845011393229165,5.3970082600911455,1.0723174810409546,0.1317484825849533,0.26712727546691895,1.1823949813842773,0.4036376476287842,-0.18777590990066528,-0.13953232765197754,0.6433581709861755,1.1139864921569824,0.4731864035129547,0.13000839948654175,1.2369136810302734,0.5901855230331421,0.14300714433193207,-0.15747883915901184,0.6444011330604553,0.1460530161857605,-0.7442449331283569,-0.6051496863365173,0.20240584015846252
134,847.0217026930588,847.5021197979266,852.8641873873197,848.1375051645132,848.8503793569712,0.12064615885416667,0.7578328450520834,0.68060302734375,-1.495361328125,3.768310546875,5.445607503255208,0.9307480454444885,0.13084737956523895,0.2757442593574524,1.0709456205368042,0.3290846049785614,-0.20310810208320618,-0.1533317267894745,0.5809193849563599,1.0667378902435303,0.45679670572280884,0.10589855164289474,1.184068202972412,0.4456941783428192,0.14051580429077148,-0.16112874448299408,0.4957007169723511,0.10351408272981644,-0.760589599609375,-0.6284931302070618,0.1551366001367569
135,846.0608661358173,851.2524695763221,849.8577106182391,840.6832909217247,849.0208435058594,0.12274169921875,0.7570597330729166,0.677886962890625,-1.2610880533854167,4.386393229166667,5.949045817057292,0.6806668043136597,0.1277533918619156,0.2757442593574524,0.8432024121284485,0.25030651688575745,-0.224630206823349,-0.17691124975681305,0.5126485228538513,1.036866307258606,0.4368801712989807,0.08391905575990677,1.1428289413452148,0.28857818245887756,0.13913871347904205,-0.16260765492916107,0.3577228784561157,0.06410012394189835,-0.7815857529640198,-0.6532483100891113,0.10603449493646622
136,836.9949270395132,847.0526897723859,853.7010427621694,843.1783588115985,851.5314213679387,0.12181599934895833,0.7545369466145834,0.6790059407552084,-1.8941243489583333,3.9876302083333335,5.60760498046875,0.5996609330177307,0.13023623824119568,0.2757442593574524,0.6322386264801025,0.1853623241186142,-0.2449672818183899,-0.19997265934944153,0.4561125934123993,1.0218459367752075,0.42086663842201233,0.06988789141178131,1.1191072463989258,0.1690998077392578,0.13676296174526215,-0.16375669836997986,0.28194987773895264,0.03389010578393936,-0.8046215176582336,-0.6749482750892639,0.0664348304271698
137,840.9312438964844,848.8658728966346,849.8422076885516,839.2265343299279,849.0363440880409,0.121795654296875,0.7554524739583334,0.6804300944010416,-1.9190470377604167,4.5820363362630205,5.570220947265625,0.6056942343711853,0.14338064193725586,0.2757442593574524,0.5499150156974792,0.1405722051858902,-0.26334282755851746,-0.21788746118545532,0.4178580939769745,1.0116139650344849,0.40561768412590027,0.05990869551897049,1.1019432544708252,0.09514962881803513,0.12620627880096436,-0.1703561693429947,0.25113531947135925,0.0027940545696765184,-0.8279976844787598,-0.6934211254119873,0.035176362842321396
138,842.6514446551984,850.7410606971154,849.2378117487981,841.9385704627404,846.1383502666766,0.1209716796875,0.7548421223958334,0.6790771484375,-1.9190470377604167,4.481099446614583,5.196380615234375,0.6056942343711853,0.14857158064842224,0.2757442593574524,0.523830235004425,0.10851651430130005,-0.2839256227016449,-0.23077093064785004,0.3893471658229828,0.9858280420303345,0.3741435706615448,0.040195513516664505,1.0639251470565796,0.036305516958236694,0.09674388915300369,-0.18844088912010193,0.21728771924972534,-0.0459122434258461,-0.8504798412322998,-0.7124031186103821,0.003572409739717841
139,845.1310237004207,848.617929311899,849.268808218149,845.5494455190806,848.8038916954628,0.11687215169270833,0.7553914388020834,0.68402099609375,-2.1483357747395835,4.496053059895833,5.2375030517578125,0.6056942343711853,0.1283843070268631,0.26849114894866943,0.5250270366668701,0.08089786022901535,-0.30959975719451904,-0.23720313608646393,0.361357718706131,0.9310346245765686,0.30939629673957825,-0.001065282616764307,0.9822250604629517,-0.01443643867969513,0.042563922703266144,-0.21508783102035522,0.16701987385749817,-0.11955364793539047,-0.8712407946586609,-0.735475480556488,-0.033702608197927475
140,847.579599233774,846.1073584923378,854.4759098933293,853.5925621619591,849.1293358435997,0.12003580729166667,0.7540181477864584,0.6782430013020834,-1.6411590576171875,3.6137898763020835,4.630635579427083,0.6056942343711853,0.07667532563209534,0.256835013628006,0.5321875214576721,0.05420459806919098,-0.33829864859580994,-0.23129968345165253,0.33050641417503357,0.8444963097572327,0.2119179517030716,-0.051838893443346024,0.8475114107131958,-0.04623758792877197,-0.029215959832072258,-0.2388291358947754,0.11253009736537933,-0.20674002170562744,-0.8883962631225586,-0.7593720555305481,-0.0734807625412941
141,841.5821298452524,845.6889225886418,849.7492206280048,847.8430551382212,849.8267118013822,0.1141357421875,0.75042724609375,0.6780192057291666,-2.220611572265625,4.334055582682292,5.198872884114583,0.6036222577095032,0.037514280527830124,0.18759742379188538,0.5185011029243469,0.03306194767355919,-0.363246887922287,-0.20536744594573975,0.30260634422302246,0.7441590428352356,0.09619586914777756,-0.10020884871482849,0.6677401065826416,-0.0609542615711689,-0.09863483160734177,-0.24859146773815155,0.06362905353307724,-0.27769654989242554,-0.8964558839797974,-0.7589412331581116,-0.1063043549656868
142,845.3634854830228,847.7500657301682,851.670896089994,843.1783564640925,843.4108182466947,0.12294514973958333,0.7507832845052084,0.6866048177083334,-1.5290069580078125,3.84307861328125,5.1901499430338545,0.602616012096405,0.03641613945364952,0.17284555733203888,0.5078714489936829,0.02551940083503723,-0.37803930044174194,-0.15551705658435822,0.2847130596637726,0.6561572551727295,0.003147998359054327,-0.1313282996416092,0.4865703284740448,-0.07238762080669403,-0.14696522057056427,-0.2446509301662445,0.023371998220682144,-0.30866947770118713,-0.8877896666526794,-0.707302451133728,-0.12723463773727417
143,845.3944796048678,852.7247103177584,852.2752967247596,849.2843111478365,844.0462083082932,0.119140625,0.7525736490885416,0.6834716796875,-1.4093780517578125,4.4474538167317705,5.101674397786458,0.602616012096405,0.03311850130558014,0.17284555733203888,0.5045425295829773,0.033437009900808334,-0.38446247577667236,-0.09302908182144165,0.2780391275882721,0.5852344632148743,-0.037422895431518555,-0.14154258370399475,0.3609892725944519,-0.09008623659610748,-0.17472347617149353,-0.2373441904783249,-0.009781097061932087,-0.31065359711647034,-0.8634712100028992,-0.6199746131896973,-0.14504587650299072
144,844.8675654484675,851.2059748722957,850.3846247746394,848.8038823054387,853.2361285869891,0.116363525390625,0.7535807291666666,0.6827596028645834,-2.1931966145833335,4.8088328043619795,5.014444986979167,0.6031025648117065,0.03335846960544586,0.17284555733203888,0.5065467953681946,0.04593809321522713,-0.3942939043045044,-0.04050914943218231,0.27515846490859985,0.524888813495636,-0.05044775456190109,-0.1478796899318695,0.3087957203388214,-0.10848821699619293,-0.19958780705928802,-0.23665522038936615,-0.03295005485415459,-0.3142109215259552,-0.8379284739494324,-0.5384389162063599,-0.1798650473356247
145,845.1155278132512,850.7410513070913,850.0281794621394,848.6799105130709,845.8748920147235,0.110107421875,0.7491251627604166,0.6806437174479166,-1.3931783040364583,4.491068522135417,4.700419108072917,0.6013606786727905,0.025939198210835457,0.17284555733203888,0.5213192701339722,0.04760560393333435,-0.4202165901660919,-0.015028598718345165,0.26365727186203003,0.47197505831718445,-0.07246621698141098,-0.16629530489444733,0.30419957637786865,-0.11990375071763992,-0.23587824404239655,-0.24678537249565125,-0.043080005794763565,-0.3387504816055298,-0.8252855539321899,-0.484458863735199,-0.24541015923023224
146,844.4336453951322,852.0428278996394,852.352773813101,845.3789790226863,847.285151554988,0.11131795247395833,0.7537841796875,0.6819254557291666,-1.2735493977864583,4.4449615478515625,5.425669352213542,0.5956186056137085,0.030538305640220642,0.15349115431308746,0.534363329410553,0.031068401411175728,-0.4665553867816925,-0.01896444521844387,0.23720316588878632,0.4196312427520752,-0.10274309664964676,-0.19600506126880646,0.3145821988582611,-0.1335049867630005,-0.28865373134613037,-0.2659124433994293,-0.04577122628688812,-0.3890397846698761,-0.8282440900802612,-0.45447781682014465,-0.3349458873271942
147,843.519301194411,849.59425001878,853.0191673865685,841.892087496244,842.4654916616587,0.11018880208333333,0.74774169921875,0.6804402669270834,-1.3483174641927083,4.341532389322917,6.128489176432292,0.5712561011314392,0.017413979396224022,0.07441525906324387,0.5409069657325745,0.0025804939214140177,-0.5225136280059814,-0.04026060178875923,0.2022334337234497,0.3602636158466339,-0.1338447779417038,-0.22466689348220825,0.31772148609161377,-0.1557137370109558,-0.3568992018699646,-0.28967317938804626,-0.04827339947223663,-0.4559023380279541,-0.8379456996917725,-0.4338777959346771,-0.4163030982017517
148,841.4891427847056,852.4767549954928,851.3299537071815,841.9695669320913,851.2679631159856,0.12024943033854167,0.7560628255208334,0.688140869140625,-0.7426961263020834,2.820002237955729,7.083028157552083,0.574582040309906,-0.02493959106504917,-0.06606538593769073,0.5481536984443665,-0.022944951429963112,-0.5657566785812378,-0.060820356011390686,0.1768122762441635,0.3106745183467865,-0.15632279217243195,-0.24909596145153046,0.319961816072464,-0.18438145518302917,-0.4265303611755371,-0.31222066283226013,-0.05059824138879776,-0.5175700783729553,-0.8422221541404724,-0.41145652532577515,-0.45096543431282043
149,843.2403517503005,850.307126558744,852.8022085336538,847.254155085637,851.7793766902043,0.121368408203125,0.7527974446614584,0.6805419921875,-1.9402313232421875,3.941523234049479,4.518483479817708,0.5964862108230591,-0.0710764154791832,-0.20209544897079468,0.5902047753334045,-0.033602628856897354,-0.5813148617744446,-0.06838446855545044,0.1724783033132553,0.2757682800292969,-0.16847491264343262,-0.270008385181427,0.32735565304756165,-0.20047831535339355,-0.4775395095348358,-0.32887235283851624,-0.05030607804656029,-0.5524409413337708,-0.8368045091629028,-0.3862680196762085,-0.439021497964859
150,845.6579355093149,850.4621018629807,849.0983417217548,845.952383188101,847.2386568509615,0.11766560872395833,0.751739501953125,0.6834615071614584,-1.8517557779947917,4.329071044921875,5.059305826822917,0.6355794668197632,-0.10797862708568573,-0.3014145493507385,0.6523194313049316,-0.03186117112636566,-0.5745355486869812,-0.0614575557410717,0.18190667033195496,0.24187639355659485,-0.17417612671852112,-0.2857751250267029,0.3429875671863556,-0.18993839621543884,-0.4970102608203888,-0.33768409490585327,-0.044921569526195526,-0.5554414391517639,-0.8281170129776001,-0.3616830110549927,-0.40680718421936035
151,845.270498422476,850.7565518892728,850.7100642277644,839.1800443209135,849.0983370267428,0.118621826171875,0.7561442057291666,0.6806844075520834,-1.0803985595703125,3.8156636555989585,5.784556070963542,0.666813850402832,-0.13503268361091614,-0.30611056089401245,0.6826493144035339,-0.02649185061454773,-0.5583852529525757,-0.04496702179312706,0.19167545437812805,0.2074122279882431,-0.17867285013198853,-0.2997394800186157,0.35886722803115845,-0.15674299001693726,-0.4866791367530823,-0.34019309282302856,-0.03555884212255478,-0.5380851030349731,-0.8261851668357849,-0.34082069993019104,-0.3701440691947937
152,840.8382591834435,850.1211641751803,850.9270230806791,844.7280930739182,844.8675771859976,0.1123046875,0.7534993489583334,0.6823933919270834,-2.1109517415364585,4.692942301432292,5.674896240234375,0.6489758491516113,-0.14389164745807648,-0.30611056089401245,0.70521080493927,-0.022167222574353218,-0.5386435389518738,-0.02599969133734703,0.19603048264980316,0.17012734711170197,-0.18314969539642334,-0.31092897057533264,0.3677314817905426,-0.11388514190912247,-0.4665316939353943,-0.34327733516693115,-0.025192687287926674,-0.5179994106292725,-0.8355534076690674,-0.3254019021987915,-0.33609792590141296
153,846.1383526141827,849.7027353140024,851.996335543119,844.5731201171875,844.7745807354266,0.114990234375,0.7520243326822916,0.6875406901041666,-2.279179890950521,4.463653564453125,4.6356201171875,0.6406358480453491,-0.14768153429031372,-0.30611056089401245,0.7419602274894714,-0.016891634091734886,-0.5164162516593933,-0.010081133805215359,0.1973285973072052,0.12837855517864227,-0.1904379427433014,-0.32508665323257446,0.36579379439353943,-0.06865905225276947,-0.46052759885787964,-0.3529520034790039,-0.008967745117843151,-0.5066302418708801,-0.8502424359321594,-0.31454741954803467,-0.30963078141212463
154,848.261476956881,851.283461350661,850.5240924541766,844.6351083608774,847.4246192345253,0.11808268229166667,0.7444864908854166,0.68353271484375,-2.2255961100260415,3.3296712239583335,4.316609700520833,0.6519441604614258,-0.1597083956003189,-0.30488601326942444,0.751778781414032,-0.005408407188951969,-0.4924708306789398,-0.00025103078223764896,0.19791407883167267,0.09586337953805923,-0.19767984747886658,-0.34220558404922485,0.36114704608917236,-0.02665073797106743,-0.4815606474876404,-0.37072476744651794,0.019772224128246307,-0.5050738453865051,-0.8584063053131104,-0.3048813045024872,-0.2898690700531006
155,841.8920828012319,849.330798809345,852.4302579439603,842.9923917330228,848.6644146259015,0.11473931206597222,0.7482367621527778,0.6877916124131944,-1.4970228407118056,4.303317599826389,4.881523980034722,0.6525567173957825,-0.16117273271083832,-0.2870180010795593,0.7533884048461914,0.013765010051429272,-0.4681342840194702,0.0013914788141846657,0.1981053203344345,0.08967822790145874,-0.20328129827976227,-0.3614839017391205,0.35709384083747864,0.012741751037538052,-0.5248881578445435,-0.39159902930259705,0.06350038945674896,-0.5083093047142029,-0.8557424545288086,-0.29519587755203247,-0.2699047923088074
156,843.0698735163762,849.0518493652344,851.1594895582932,846.4018014761118,849.4547799917368,0.10943603515625,0.75006103515625,0.68499755859375,-1.188812255859375,4.23187255859375,5.5029296875,0.6525567173957825,-0.14731177687644958,-0.26944687962532043,0.7538892030715942,0.03408753499388695,-0.44371461868286133,-0.00935696717351675,0.19675686955451965,0.111261747777462,-0.21040457487106323,-0.38672614097595215,0.3468007445335388,0.05072937533259392,-0.5736655592918396,-0.41219356656074524,0.11205491423606873,-0.5140430331230164,-0.8511335849761963,-0.29247820377349854,-0.24475444853305817
157,846.3553114670974,849.8422076885516,853.4375892052284,846.4172973632812,844.0462106557993,0.11161295572916667,0.7557779947916666,0.6845601399739584,-1.2137349446614583,4.294179280598958,5.7409413655598955,0.651841402053833,-0.11456575989723206,-0.2695508897304535,0.7538892030715942,0.045174550265073776,-0.42172059416770935,-0.04009326174855232,0.19220739603042603,0.14084577560424805,-0.22492371499538422,-0.424534410238266,0.32252368330955505,0.08488404005765915,-0.6101395487785339,-0.4387674033641815,0.15119525790214539,-0.5243417620658875,-0.8566709160804749,-0.30759090185165405,-0.21816931664943695
158,844.8365689791166,851.2524625338041,850.7720501239484,842.7134399414062,845.5494478665865,0.11429850260416667,0.74969482421875,0.6827392578125,-1.98883056640625,3.730926513671875,6.283009847005208,0.642903745174408,-0.0983189269900322,-0.29148682951927185,0.7525095343589783,0.040821049362421036,-0.40701159834861755,-0.09519211947917938,0.18179135024547577,0.1635284423828125,-0.25039076805114746,-0.48103538155555725,0.277977854013443,0.11463690549135208,-0.629924476146698,-0.4791106581687927,0.17729705572128296,-0.5407814383506775,-0.8721872568130493,-0.34551748633384705,-0.19678549468517303
159,844.4336407001202,849.7492253230168,850.3691148024338,842.9149076021635,843.1628629244291,0.11594645182291667,0.7515462239583334,0.68505859375,-1.472930908203125,4.20196533203125,6.798909505208333,0.6362213492393494,-0.10424086451530457,-0.31399405002593994,0.7525095343589783,0.025927923619747162,-0.40163180232048035,-0.16661319136619568,0.16635563969612122,0.16935007274150848,-0.2978277802467346,-0.5542539358139038,0.21870115399360657,0.13935430347919464,-0.6410360336303711,-0.5289051532745361,0.1972319781780243,-0.5591621398925781,-0.8846004605293274,-0.3981167674064636,-0.1817309707403183
160,843.9532259427584,851.6244013859675,852.4302649864784,844.1856853778546,845.9833820049579,0.121490478515625,0.7491556803385416,0.6854451497395834,-1.5900675455729167,3.475468953450521,5.3720855712890625,0.6349753141403198,-0.11373323202133179,-0.30828797817230225,0.7525095343589783,0.01516414899379015,-0.3990066647529602,-0.2311432659626007,0.15148599445819855,0.16408830881118774,-0.37611255049705505,-0.6282421946525574,0.1599242389202118,0.16334892809391022,-0.6503211855888367,-0.5687169432640076,0.21874743700027466,-0.5721449851989746,-0.8803061842918396,-0.44907423853874207,-0.16978637874126434
161,843.1628605769231,850.95801955003,850.5240924541766,844.2476759690505,851.0355036808894,0.12408447265625,0.7574564615885416,0.686767578125,-1.1800893147786458,4.660542805989583,5.839385986328125,0.6365941166877747,-0.12479450553655624,-0.23622441291809082,0.7525095343589783,0.019561542198061943,-0.3902948796749115,-0.2665351331233978,0.14076022803783417,0.15766574442386627,-0.4980642795562744,-0.6789257526397705,0.10978423058986664,0.18969924747943878,-0.6564900279045105,-0.5827711820602417,0.24039000272750854,-0.574405312538147,-0.8605286478996277,-0.488023966550827,-0.15952251851558685
162,838.0487506573016,848.9898658165565,849.0363534780649,839.9704167292668,834.453369140625,0.1065673828125,0.7396443684895834,0.680938720703125,-3.3246866861979165,5.704803466796875,9.632619222005209,0.6384825110435486,-0.12304937839508057,-0.1038171797990799,0.7525095343589783,0.03385532647371292,-0.37168148159980774,-0.27409178018569946,0.12923571467399597,0.15735968947410583,-0.6463225483894348,-0.698630154132843,0.07782232761383057,0.21519939601421356,-0.6544451713562012,-0.5752660632133484,0.2578352987766266,-0.5650739073753357,-0.8388404846191406,-0.5179850459098816,-0.15251551568508148
163,848.4319528432993,853.1586421086238,850.7255624624399,846.897714468149,854.8943364070012,0.11830647786458333,0.7497965494791666,0.6902262369791666,0.2666727701822917,2.624359130859375,2.16827392578125,0.6488345265388489,-0.09673262387514114,-0.02879077009856701,0.7594255805015564,0.0454523004591465,-0.3490816056728363,-0.2717282772064209,0.10918033868074417,0.16189563274383545,-0.7794438004493713,-0.7045822739601135,0.059153977781534195,0.23663806915283203,-0.6408507227897644,-0.5612168908119202,0.26904377341270447,-0.5489696264266968,-0.8240334391593933,-0.5457543134689331,-0.14875708520412445
164,836.142578125,848.292478121244,849.4082946777344,833.5855149489182,847.6570833646334,0.12590535481770834,0.749542236328125,0.6860148111979166,-0.8324178059895834,3.4418233235677085,5.809478759765625,0.6886410713195801,-0.07854609936475754,-0.01797986403107643,0.7782134413719177,0.047532372176647186,-0.3308906853199005,-0.2733406126499176,0.08313419669866562,0.16696614027023315,-0.8495486378669739,-0.7092810273170471,0.03902140632271767,0.2573752999305725,-0.6134582161903381,-0.5486850738525391,0.2782091498374939,-0.5354410409927368,-0.8151466250419617,-0.5713915824890137,-0.14418856799602509
165,842.2795175405649,848.1065086951622,848.9898564265325,838.9320936936599,848.1994910606971,0.12664794921875,0.7448323567708334,0.6830647786458334,-0.24424235026041666,5.109151204427083,6.751556396484375,0.7191234230995178,-0.019439449533820152,-0.014857268892228603,0.8084995150566101,0.0434456504881382,-0.3216312527656555,-0.28316500782966614,0.06657568365335464,0.17069143056869507,-0.8544701337814331,-0.7095978856086731,0.007229651790112257,0.28467944264411926,-0.5695056319236755,-0.5413132309913635,0.2883068323135376,-0.531545877456665,-0.8054625988006592,-0.5921272039413452,-0.13697822391986847
166,845.9833820049579,848.912367600661,854.2744375375601,852.8176973783053,845.2859919621394,0.12180582682291667,0.7466939290364584,0.6838175455729166,1.2099965413411458,5.066782633463542,6.871185302734375,0.7279992699623108,0.012078053317964077,-0.011713957414031029,0.8289061784744263,0.042555514723062515,-0.3200002908706665,-0.29918500781059265,0.0686853677034378,0.181328684091568,-0.8178138732910156,-0.701744794845581,-0.007124378811568022,0.3226413428783417,-0.5149263143539429,-0.5408607721328735,0.3018367290496826,-0.5363732576370239,-0.7912387847900391,-0.6054686307907104,-0.12908625602722168
167,843.3643282376803,839.5519855205829,857.0484642615685,845.0845289963943,847.254155085637,0.12092081705729167,0.761199951171875,0.6814066569010416,1.0567220052083333,4.3427785237630205,6.764017740885417,0.7038900256156921,0.012078053317964077,-0.005782872438430786,0.8282177448272705,0.057245608419179916,-0.3230249583721161,-0.3127381205558777,0.0833272635936737,0.20852303504943848,-0.7258648872375488,-0.6720314025878906,0.03787001594901085,0.36674758791923523,-0.4624044597148895,-0.5483368039131165,0.323294460773468,-0.5399060249328613,-0.7738858461380005,-0.610420823097229,-0.1213737279176712
168,853.4065903883713,855.5607182429387,845.9368849534255,853.1276362492488,850.7100595327524,0.12526448567708334,0.7622578938802084,0.6740214029947916,-0.23676554361979166,3.9365386962890625,4.5247141520182295,0.7065300941467285,0.012078053317964077,0.016010021790862083,0.8269779086112976,0.1098949983716011,-0.3256101608276367,-0.3134063482284546,0.10122063010931015,0.25332075357437134,-0.6253873705863953,-0.6049342751502991,0.1529419720172882,0.4092317521572113,-0.4095505177974701,-0.5587165355682373,0.3542034924030304,-0.5176306366920471,-0.7562465667724609,-0.6059257388114929,-0.10960700362920761
169,849.1293264535757,843.4573129507212,854.367429293119,850.8185354379507,852.9261756310096,0.12294514973958333,0.764404296875,0.6709187825520834,-1.3707478841145833,5.443115234375,4.757741292317708,0.7754610776901245,0.03444470837712288,0.019926128908991814,0.8393774628639221,0.20629233121871948,-0.317853718996048,-0.2971040904521942,0.12114662677049637,0.3041505813598633,-0.49099960923194885,-0.4620559811592102,0.27819252014160156,0.44795674085617065,-0.3358291983604431,-0.5545691847801208,0.3929038941860199,-0.44993454217910767,-0.7374388575553894,-0.5960025191307068,-0.08725632727146149
170,837.5838270920974,834.1124244103065,857.1104478102463,844.0307124211238,844.9295630821815,0.11815388997395833,0.7622172037760416,0.6726277669270834,-1.5726216634114583,4.9284617106119795,5.709788004557292,0.8740310072898865,0.05032040923833847,0.033926822245121,0.9111639261245728,0.3187733590602875,-0.29003143310546875,-0.2690722644329071,0.14813199639320374,0.35823094844818115,-0.31183764338493347,-0.28015461564064026,0.37652722001075745,0.48582467436790466,-0.2245263010263443,-0.5056692957878113,0.4327801465988159,-0.3497565984725952,-0.7151657342910767,-0.58672034740448,-0.05551827326416969
171,834.2209073580228,838.2812077448918,857.4049072265625,842.2950087327224,846.7272503192609,0.12445068359375,0.760284423828125,0.6749471028645834,-1.6137440999348958,3.7047576904296875,5.146535237630208,0.9321874976158142,0.14451062679290771,0.16818274557590485,0.9787999391555786,0.4172835946083069,-0.23970897495746613,-0.23448458313941956,0.18455134332180023,0.4290611743927002,-0.06960773468017578,-0.09449101239442825,0.45159268379211426,0.5319972038269043,-0.07212091237306595,-0.38944149017333984,0.4703092873096466,-0.24676726758480072,-0.6914433240890503,-0.581699013710022,-0.022152625024318695
172,840.1408855731671,847.1611727201022,855.8396723820613,844.7280930739182,851.5469149076022,0.12052408854166667,0.7544352213541666,0.6702880859375,-1.2835184733072917,4.137166341145833,5.520375569661458,1.012097954750061,0.3590568006038666,0.3504296839237213,1.0218713283538818,0.49158409237861633,-0.1799636036157608,-0.19890078902244568,0.22913457453250885,0.5139910578727722,0.18232451379299164,0.07249550521373749,0.5123140811920166,0.5953252911567688,0.10108409076929092,-0.22561101615428925,0.5110909342765808,-0.16206710040569305,-0.6735888123512268,-0.5796394944190979,0.0064665162935853004
173,844.0462106557993,851.5004248985878,846.2933208759015,842.4189946101262,847.1921668419471,0.12022569444444445,0.7627156575520834,0.6745876736111112,-1.7844645182291667,4.215257432725695,5.948215060763889,1.0573792457580566,0.48532721400260925,0.4458540678024292,1.040756344795227,0.5450897812843323,-0.12544137239456177,-0.16822323203086853,0.27960705757141113,0.59836745262146,0.384052038192749,0.20180340111255646,0.5635144114494324,0.6763320565223694,0.26461997628211975,-0.059482648968696594,0.560435950756073,-0.0963205024600029,-0.6698880791664124,-0.5744569301605225,0.030349649488925934
174,832.4542118952825,860.3184016301082,845.7354125976562,835.1972351074219,848.8658752441406,0.12384033203125,0.7609049479166666,0.6749471028645834,-1.8791707356770833,3.9975992838541665,5.515391031901042,1.0769002437591553,0.5206899046897888,0.4640345871448517,1.0434136390686035,0.5832414031028748,-0.08096712827682495,-0.1459372341632843,0.3326089680194855,0.6667776107788086,0.5300114750862122,0.29434332251548767,0.5978513360023499,0.7634016275405884,0.3935229480266571,0.071539506316185,0.6134353876113892,-0.04259734973311424,-0.6806512475013733,-0.5611061453819275,0.052154235541820526
175,855.4522446852463,877.7528874323918,834.1899155836838,838.157221867488,850.8960289588341,0.11216227213541667,0.7589314778645834,0.6742451985677084,-2.5321451822916665,5.0829823811848955,5.4094696044921875,1.0800869464874268,0.5411846041679382,0.48465970158576965,1.0434136390686035,0.6092634797096252,-0.04935775697231293,-0.13272568583488464,0.38495880365371704,0.7228521704673767,0.64915531873703,0.37264353036880493,0.6170613169670105,0.8418143391609192,0.48453477025032043,0.1650894582271576,0.6584353446960449,0.005225987173616886,-0.7014656066894531,-0.5421566367149353,0.07502913475036621
176,856.0721271221454,858.7686697152944,847.5486051119291,853.685544527494,852.5387455866887,0.13350423177083334,0.7607421875,0.6904500325520834,-4.104766845703125,6.891123453776042,5.061798095703125,1.0800869464874268,0.5645744204521179,0.49882856011390686,1.0434136390686035,0.6307414770126343,-0.023246072232723236,-0.12293432652950287,0.4420245885848999,0.7797713279724121,0.7508000731468201,0.4473739266395569,0.636047899723053,0.9015446305274963,0.5575360655784607,0.24463172256946564,0.6954107880592346,0.0522565133869648,-0.7193267345428467,-0.5201394557952881,0.10509265214204788
177,841.892075758714,853.654552753155,850.8960289588341,844.6815983698918,857.3429119403546,0.1165771484375,0.7466023763020834,0.6768798828125,-1.8779246012369792,3.221257527669271,4.9346923828125,1.0800869464874268,0.6589317321777344,0.49894246459007263,1.0511064529418945,0.6593454480171204,0.0008390444563701749,-0.11154898256063461,0.5082130432128906,0.8387292623519897,0.8595556616783142,0.5294703245162964,0.6709988117218018,0.9422393441200256,0.6385494470596313,0.33749428391456604,0.735701322555542,0.10137206315994263,-0.7243391275405884,-0.49822524189949036,0.14613717794418335
178,849.5942547137921,854.2589439978966,851.996337890625,846.7427438589243,843.6587806114784,0.12432861328125,0.7577921549479166,0.6787516276041666,-0.3912862141927083,5.33843994140625,2.3601786295572915,1.0800869464874268,0.7963533997535706,0.49879518151283264,1.0862096548080444,0.6964596509933472,0.022272415459156036,-0.09773007780313492,0.5746884346008301,0.9046584963798523,0.9736906290054321,0.6206156611442566,0.726891279220581,0.9681742787361145,0.7269840240478516,0.43896955251693726,0.7843620181083679,0.14939545094966888,-0.7178874015808105,-0.4805971384048462,0.19083942472934723
179,847.0371915377103,849.6872347318209,852.2133014385516,847.4091233473557,853.8405174842247,0.10943603515625,0.7567613389756944,0.6820949978298612,-2.1292283799913196,5.795355902777778,4.460330539279514,1.0800869464874268,0.8429296612739563,0.5205812454223633,1.1066306829452515,0.7318690419197083,0.03765331953763962,-0.08466882258653641,0.6251624226570129,0.9695895314216614,1.0696347951889038,0.7020297646522522,0.791740357875824,0.983527421951294,0.8008514642715454,0.5226523280143738,0.8307971954345703,0.18871992826461792,-0.7096560597419739,-0.47025033831596375,0.224848210811615
180,840.3952967325846,852.2649663289388,852.7014694213867,842.0070215861002,857.7884623209635,0.10581461588541667,0.7581787109375,0.6841023763020834,-1.5053304036458333,3.7384033203125,6.093597412109375,1.0810102224349976,0.8429296612739563,0.5265635251998901,1.1071197986602783,0.7555283308029175,0.0456247553229332,-0.07590576261281967,0.6506357192993164,1.0227755308151245,1.1324774026870728,0.761367678642273,0.8446635603904724,0.990670919418335,0.8457821011543274,0.5739583373069763,0.8626097440719604,0.2134992629289627,-0.7087000012397766,-0.46652650833129883,0.2407127022743225
181,838.126230093149,852.321779691256,853.8560180664062,840.8382615309495,856.7230201134315,0.10597737630208333,0.754425048828125,0.680816650390625,-1.4754231770833333,3.4667460123697915,5.5415598551432295,1.0818004608154297,0.8429296612739563,0.5265635251998901,1.1071197986602783,0.7658451795578003,0.047960106283426285,-0.07292234152555466,0.6549292206764221,1.0548352003097534,1.1648468971252441,0.7945412993431091,0.8732315897941589,0.9901650547981262,0.8631544709205627,0.5959903597831726,0.8761730790138245,0.22458308935165405,-0.7156116962432861,-0.4666118025779724,0.24207834899425507
182,838.8081125112681,852.1668020395132,851.4074448805588,842.5739581768329,844.8675748384916,0.11077880859375,0.7513631184895834,0.6787312825520834,-2.2555033365885415,3.7035115559895835,4.102274576822917,1.0818004608154297,0.8429296612739563,0.5265635251998901,1.0645008087158203,0.7593064904212952,0.04497895762324333,-0.08521874994039536,0.640332818031311,1.0721222162246704,1.1819936037063599,0.8110536336898804,0.8595224618911743,0.9698944687843323,0.8646157383918762,0.6020035743713379,0.8679086565971375,0.22571852803230286,-0.7380551695823669,-0.4737482964992523,0.23236635327339172
183,842.9465185546875,852.1655688476562,847.9106176757813,841.866669921875,853.116484375,0.109521484375,0.75303955078125,0.68299560546875,-1.5800984700520833,4.8312632242838545,6.125996907552083,1.0818004608154297,0.8429296612739563,0.5265635251998901,1.0528372526168823,0.7396103143692017,0.038464438170194626,-0.10252154618501663,0.6307028532028198,1.069319248199463,1.1813043355941772,0.8063070774078369,0.8291117548942566,0.9542388319969177,0.8616694808006287,0.6005019545555115,0.8525040149688721,0.2181468904018402,-0.7540318369865417,-0.48581627011299133,0.22195367515087128
184,842.8800379435221,854.3467585245768,850.0992075602213,843.7362721761068,847.5137303670248,0.10210164388020833,0.7509969075520834,0.6831868489583334,-1.407135009765625,4.942169189453125,5.241241455078125,1.050888180732727,0.8429296612739563,0.5265635251998901,1.0479004383087158,0.6731389164924622,-0.004092995077371597,-0.15877604484558105,0.6028550267219543,1.040255069732666,1.1664376258850098,0.7761824727058411,0.7638875842094421,0.9124515652656555,0.8397089838981628,0.5864675641059875,0.8052365779876709,0.18613532185554504,-0.8073583245277405,-0.5170533061027527,0.17690451443195343
185,843.6277794471154,862.1470853365385,852.321782038762,842.0160592886118,851.1284883939303,0.10502115885416667,0.7562255859375,0.6882527669270834,-1.1962890625,4.358978271484375,5.1739501953125,1.0267322063446045,0.8429296612739563,0.5265635251998901,1.0473530292510986,0.6385695338249207,-0.04375673830509186,-0.1878339648246765,0.5828477144241333,1.0095226764678955,1.1462836265563965,0.7501969337463379,0.7293959259986877,0.876965343952179,0.8129600286483765,0.5677195191383362,0.7749302387237549,0.16648982465267181,-0.8300852179527283,-0.5211989879608154,0.1481076329946518
186,844.3406606820913,862.6120018592247,852.6627220740685,845.0380413348859,852.1358149601863,0.10582478841145833,0.7598978678385416,0.6898091634114584,-2.8374481201171875,4.18701171875,3.662389119466146,1.001636266708374,0.8429296612739563,0.5062233805656433,1.0405550003051758,0.6065696477890015,-0.08929844945669174,-0.20748010277748108,0.5583258867263794,0.9714478254318237,1.1185566186904907,0.7203132510185242,0.6937792301177979,0.8215817213058472,0.7726711630821228,0.5384182333946228,0.7371423244476318,0.14532534778118134,-0.8301609754562378,-0.5156492590904236,0.12070169299840927
187,840.4777885105299,866.1251698369565,853.9321554432745,839.4792108950408,839.5492898692255,0.1021728515625,0.73931884765625,0.6731363932291666,-4.909769694010417,5.238749186197917,3.33465576171875,0.9767613410949707,0.8426296710968018,0.4784570336341858,1.0400317907333374,0.5774050354957581,-0.13371782004833221,-0.2171812504529953,0.5287282466888428,0.9345690011978149,1.0899384021759033,0.6909022331237793,0.6653259992599487,0.7409414052963257,0.7240601181983948,0.5032110810279846,0.6907382607460022,0.12093597650527954,-0.8053326606750488,-0.5093014240264893,0.09482037276029587
188,836.8864417442909,875.3663024902344,857.032968374399,836.2975440392128,850.5240901066707,0.09490966796875,0.7441202799479166,0.692352294921875,-1.4318084716796875,4.2879486083984375,6.1446889241536455,0.9596314430236816,0.8426296710968018,0.4688582718372345,1.0400317907333374,0.5529254674911499,-0.16827838122844696,-0.22222548723220825,0.4920790195465088,0.9007987976074219,1.060420036315918,0.6575102806091309,0.6479384899139404,0.6359283924102783,0.6758084893226624,0.4672001898288727,0.6414554119110107,0.09275833517313004,-0.7670326828956604,-0.509372353553772,0.0662037581205368
189,846.5412785456731,877.2569767878606,856.0721341646635,842.899404672476,848.5094393216647,0.09282430013020833,0.7488810221354166,0.6887919108072916,-1.472930908203125,6.337839762369792,4.5571136474609375,0.939178466796875,0.8426296710968018,0.46753525733947754,1.0400317907333374,0.5286861658096313,-0.19955967366695404,-0.23119114339351654,0.4387654960155487,0.8611558079719543,1.0279419422149658,0.6150374412536621,0.6300758719444275,0.5176301598548889,0.6242732405662537,0.42405056953430176,0.5914199948310852,0.05934452265501022,-0.7367725372314453,-0.5181841254234314,0.02467437833547592
190,851.2369666466346,871.4764709472656,856.3975783128005,848.5249305138221,848.4474487304688,0.089630126953125,0.7498881022135416,0.6955668131510416,-3.09539794921875,7.0693206787109375,2.9608154296875,0.9176621437072754,0.8418292999267578,0.4595230519771576,1.0400317907333374,0.49052557349205017,-0.2360784262418747,-0.2463851422071457,0.3535727560520172,0.8097030520439148,0.9758590459823608,0.5523641705513,0.5939016938209534,0.4014033377170563,0.544041097164154,0.35052964091300964,0.5290656089782715,0.01525789313018322,-0.7262179255485535,-0.5297257304191589,-0.04107675701379776
191,846.7582444411057,870.6706096942609,855.6692058856671,845.0845336914062,851.1904813326322,0.08772786458333333,0.7414652506510416,0.692138671875,-1.86920166015625,3.3608245849609375,5.355885823567708,0.8563669323921204,0.8232098817825317,0.44511839747428894,1.0227798223495483,0.43163418769836426,-0.2802906036376953,-0.2642529308795929,0.2275046408176422,0.7355735898017883,0.8898302316665649,0.4494723975658417,0.5280972719192505,0.2990645170211792,0.4048272371292114,0.2224121391773224,0.44050517678260803,-0.04131436347961426,-0.7338724136352539,-0.5347310900688171,-0.13290126621723175
192,845.8903879018931,864.9211073655349,856.676527756911,842.542973445012,856.3975759652944,0.09263102213541667,0.7472737630208334,0.6968790690104166,-0.6778971354166666,2.2604878743489585,6.883646647135417,0.7589573860168457,0.6971426010131836,0.38697338104248047,0.9465663433074951,0.3635123670101166,-0.324067622423172,-0.27801573276519775,0.07502555102109909,0.6391491889953613,0.7762940526008606,0.29692232608795166,0.43377864360809326,0.21381162106990814,0.19332604110240936,0.034843675792217255,0.3320713937282562,-0.10056575387716293,-0.7477163672447205,-0.528885006904602,-0.23165453970432281
193,845.8593984750601,861.775144136869,858.6756803072416,843.875737116887,854.0884751539963,0.09153238932291667,0.7469075520833334,0.6921793619791666,-1.4006551106770833,3.7807718912760415,6.2194569905598955,0.7020836472511292,0.4232445955276489,0.2692217230796814,0.8056957721710205,0.3112289309501648,-0.3552258610725403,-0.2834568917751312,-0.05621662735939026,0.5341280102729797,0.6672648787498474,0.09561809152364731,0.33869820833206177,0.14210130274295807,-0.06365834176540375,-0.17806237936019897,0.23762166500091553,-0.14459532499313354,-0.7536749839782715,-0.5160123705863953,-0.305153489112854
194,849.0983346792368,860.2564157339243,857.4513901930588,847.8585557204026,843.906733586238,0.08949788411458333,0.7483927408854166,0.6934814453125,-2.2106424967447915,4.747772216796875,5.739695231119792,0.6771701574325562,0.05534937605261803,0.11952390521764755,0.6191415786743164,0.28851550817489624,-0.3694652020931244,-0.281878262758255,-0.12424872070550919,0.448914110660553,0.5994831323623657,-0.11368319392204285,0.27691972255706787,0.08710160851478577,-0.2590165138244629,-0.33348411321640015,0.1925119161605835,-0.16460992395877838,-0.748822808265686,-0.5020006895065308,-0.3411320149898529
195,841.2876845139724,855.700197660006,855.1267981896034,839.195547250601,841.9075833834135,0.08460828993055555,0.7449001736111112,0.6943155924479166,-1.6266208224826388,4.462822808159722,5.256195068359375,0.6803289651870728,-0.24104176461696625,0.01279527973383665,0.5029692053794861,0.2837274372577667,-0.3727564215660095,-0.27753233909606934,-0.14915530383586884,0.3894147574901581,0.5810736417770386,-0.2688859701156616,0.25161075592041016,0.05974737927317619,-0.32811227440834045,-0.3900037407875061,0.18418419361114502,-0.17050893604755402,-0.7383418679237366,-0.488438218832016,-0.3601960837841034
196,842.1400381234976,855.700192964994,851.314453125,841.7991004356971,852.678217961238,0.08896891276041667,0.74359130859375,0.6885172526041666,-2.4224853515625,3.6785888671875,4.969584147135417,0.6890255212783813,-0.3304176926612854,-0.05253370478749275,0.47434669733047485,0.2793615162372589,-0.37461140751838684,-0.27384355664253235,-0.1655290424823761,0.3468291759490967,0.5882195830345154,-0.3382894694805145,0.2466551810503006,0.05894855037331581,-0.34737467765808105,-0.39620283246040344,0.18293550610542297,-0.17578956484794617,-0.7292420864105225,-0.4749574661254883,-0.38232478499412537
197,844.7125995342548,855.9636559119591,853.9335045447716,840.3268526517428,849.7492229755109,0.086639404296875,0.7474873860677084,0.6992899576822916,-1.4903767903645833,4.2630259195963545,6.038767496744792,0.6919654011726379,-0.3317815363407135,-0.0892118364572525,0.5166309475898743,0.26485568284988403,-0.38173478841781616,-0.27054768800735474,-0.17739318311214447,0.30756521224975586,0.6059933304786682,-0.3453800678253174,0.24852395057678223,0.07713551819324493,-0.3581661880016327,-0.3901605010032654,0.18169589340686798,-0.18476678431034088,-0.7238323092460632,-0.462712824344635,-0.4041370153427124
198,840.2183743990385,851.2214778019832,854.3519263634315,849.3462946965144,845.7974102313702,0.08896891276041667,0.7375284830729166,0.6959635416666666,-2.3826090494791665,1.1040751139322917,6.215718587239583,0.6919654011726379,-0.33632370829582214,-0.11765123158693314,0.6033403873443604,0.23369212448596954,-0.3938363194465637,-0.26490551233291626,-0.17492355406284332,0.28349384665489197,0.6225714683532715,-0.3076152503490448,0.24996383488178253,0.10526968538761139,-0.356513649225235,-0.3874799907207489,0.190657839179039,-0.19779621064662933,-0.7213505506515503,-0.4544835388660431,-0.41807740926742554
199,842.3260028545673,852.6162320650541,852.0738290640024,855.5607205904447,843.2093505859375,0.1011962890625,0.7411295572916666,0.6939595540364584,-1.9801076253255208,2.608159383138021,4.476114908854167,0.6826820373535156,-0.3304143249988556,-0.13642705976963043,0.674517810344696,0.18842926621437073,-0.40958207845687866,-0.25850290060043335,-0.15605439245700836,0.28099560737609863,0.6336642503738403,-0.2616874873638153,0.26776450872421265,0.1423272043466568,-0.3351684510707855,-0.40113112330436707,0.21848559379577637,-0.2131548821926117,-0.7197151184082031,-0.45077812671661377,-0.4217378497123718
200,847.967038668119,850.3846130371094,851.5934072641226,856.1961129995493,848.8348811222957,0.090789794921875,0.7410786946614584,0.6955973307291666,-1.1090596516927083,5.8879852294921875,5.3870391845703125,0.6338597536087036,-0.30674731731414795,-0.1443873941898346,0.7105757594108582,0.14289569854736328,-0.42236289381980896,-0.2557341754436493,-0.1270623803138733,0.2868061661720276,0.6395283341407776,-0.2315663844347,0.3157472610473633,0.18799404799938202,-0.2900348901748657,-0.4388197362422943,0.25991204380989075,-0.2244298905134201,-0.7173455357551575,-0.4491732716560364,-0.4202142059803009
